Timestamp [us]	A_X [LSB]	A_Y [LSB]	A_Z [LSB]	A_X [mg]	A_Y [mg]	A_Z [mg]	
110130	2127	-3822	2539	259.494	-466.284	309.758
130432	1876	-4534	1936	228.872	-553.148	236.192
150733	2646	-7645	1718	322.812	-932.69	209.596
171034	3463	-13477	3328	422.486	-1644.19	406.016
191335	2150	-20518	2855	262.3	-2503.2	348.31
211637	-3296	-25190	1124	-402.112	-3073.18	137.128
231939	-7425	-22535	1410	-905.85	-2749.27	172.02
252242	-7410	-15337	1807	-904.02	-1871.11	220.454
272544	-6650	-12228	945	-811.3	-1491.82	115.29
292849	-6828	-11491	-212	-833.016	-1401.9	-25.864
313151	-6954	-8704	-1002	-848.388	-1061.89	-122.244
333453	-6537	-4809	-707	-797.514	-586.698	-86.254
353752	-6741	-2436	-209	-822.402	-297.192	-25.498
374051	-7610	-1044	-1185	-928.42	-127.368	-144.57
394352	-7723	1828	-2755	-942.206	223.016	-336.11
414654	-6963	5052	-2574	-849.486	616.344	-314.028
434958	-5832	4568	-1076	-711.504	557.296	-131.272
455262	-5422	1124	358	-661.484	137.128	43.676
475564	-6541	-2658	730	-798.002	-324.276	89.06
495867	-8227	-7080	1572	-1003.69	-863.76	191.784
516171	-9468	-13536	1601	-1155.1	-1651.39	195.322
536473	-11348	-18529	165	-1384.46	-2260.54	20.13
556776	-11329	-19998	3370	-1382.14	-2439.76	411.14
577077	-7759	-20982	3511	-946.598	-2559.8	428.342
597380	-3812	-18630	2185	-465.064	-2272.86	266.57
617683	-432	-15215	2255	-52.704	-1856.23	275.11
637986	3434	-13140	3061	418.948	-1603.08	373.442
658289	7230	-9924	2744	882.06	-1210.73	334.768
678590	9275	-7412	2362	1131.55	-904.264	288.164
698892	9183	-7465	3531	1120.33	-910.73	430.782
719193	7128	-7800	5297	869.616	-951.6	646.234
739495	4880	-7377	4396	595.36	-899.994	536.312
759796	2951	-8305	2841	360.022	-1013.21	346.602
780101	789	-12690	3477	96.258	-1548.18	424.194
800402	-821	-18284	4337	-100.162	-2230.65	529.114
820707	-4075	-19203	1286	-497.15	-2342.77	156.892
841011	-14018	-23352	-626	-1710.2	-2848.94	-76.372
861314	-16745	-21010	545	-2042.89	-2563.22	66.49
881617	-12729	-14286	1177	-1552.94	-1742.89	143.594
901920	-12101	-11300	841	-1476.32	-1378.6	102.602
922222	-10293	-6314	-92	-1255.75	-770.308	-11.224
942525	-9589	-1299	-1639	-1169.86	-158.478	-199.958
962829	-9389	2290	-1854	-1145.46	279.38	-226.188
983131	-7811	5118	-1882	-952.942	624.396	-229.604
1.00343e+06	-6283	7266	-3201	-766.526	886.452	-390.522
1.02374e+06	-4849	8824	-4063	-591.578	1076.53	-495.686
1.04403e+06	-3479	8371	-2973	-424.438	1021.26	-362.706
1.06433e+06	-3758	5764	-870	-458.476	703.208	-106.14
1.08463e+06	-6446	2611	-433	-786.412	318.542	-52.826
1.10493e+06	-11365	-4050	-2768	-1386.53	-494.1	-337.696
1.12524e+06	-16187	-19072	-5170	-1974.81	-2326.78	-630.74
1.14554e+06	-12671	-27916	-3565	-1545.86	-3405.75	-434.93
1.16584e+06	-11444	-26135	-2012	-1396.17	-3188.47	-245.464
1.18614e+06	-9567	-23542	-1253	-1167.17	-2872.12	-152.866
1.20644e+06	-5786	-19984	-547	-705.892	-2438.05	-66.734
1.22674e+06	-2206	-17328	606	-269.132	-2114.02	73.932
1.24704e+06	368	-14193	1513	44.896	-1731.55	184.586
1.26735e+06	2114	-11069	1523	257.908	-1350.42	185.806
1.28765e+06	3935	-8444	2176	480.07	-1030.17	265.472
1.30796e+06	6830	-6354	3738	833.26	-775.188	456.036
1.32826e+06	9843	-5095	4724	1200.85	-621.59	576.328
1.34856e+06	9797	-4910	4434	1195.23	-599.02	540.948
1.36887e+06	6797	-5349	3801	829.234	-652.578	463.722
1.38917e+06	4758	-5066	2628	580.476	-618.052	320.616
1.40947e+06	3147	-7297	1194	383.934	-890.234	145.668
1.42978e+06	952	-16132	931	116.144	-1968.1	113.582
1.45008e+06	-4262	-26660	-2296	-519.964	-3252.52	-280.112
1.47038e+06	-12708	-30772	-3619	-1550.38	-3754.18	-441.518
1.49068e+06	-15751	-28170	-1416	-1921.62	-3436.74	-172.752
1.51098e+06	-13820	-19612	-1926	-1686.04	-2392.66	-234.972
1.53128e+06	-12552	-12677	-2348	-1531.34	-1546.59	-286.456
1.55159e+06	-10575	-7264	-2363	-1290.15	-886.208	-288.286
1.57189e+06	-8858	-2408	-2692	-1080.68	-293.776	-328.424
1.5922e+06	-7319	888	-2254	-892.918	108.336	-274.988
1.6125e+06	-6480	1568	-2205	-790.56	191.296	-269.01
1.6328e+06	-6263	2106	-2550	-764.086	256.932	-311.1
1.6531e+06	-6101	4029	-2823	-744.322	491.538	-344.406
1.67341e+06	-6157	6103	-2751	-751.154	744.566	-335.622
1.69371e+06	-5916	6584	-1261	-721.752	803.248	-153.842
1.71401e+06	-5657	4543	-18	-690.154	554.246	-2.196
1.73431e+06	-6342	1537	285	-773.724	187.514	34.77
1.75461e+06	-10012	-2405	-730	-1221.46	-293.41	-89.06
1.77491e+06	-15581	-13243	-1975	-1900.88	-1615.65	-240.95
1.79522e+06	-14176	-23511	118	-1729.47	-2868.34	14.396
1.81552e+06	-10167	-22472	1044	-1240.37	-2741.58	127.368
1.83582e+06	-8432	-20977	-770	-1028.7	-2559.19	-93.94
1.85612e+06	-4589	-17334	-1795	-559.858	-2114.75	-218.99
1.87642e+06	-749	-14931	-2066	-91.378	-1821.58	-252.052
1.89672e+06	3278	-13804	-428	399.916	-1684.09	-52.216
1.91703e+06	6385	-12799	548	778.97	-1561.48	66.856
1.93733e+06	6697	-11913	183	817.034	-1453.39	22.326
1.95763e+06	6348	-10028	812	774.456	-1223.42	99.064
1.97793e+06	7565	-7902	2423	922.93	-964.044	295.606
1.99823e+06	8700	-6894	3386	1061.4	-841.068	413.092
2.01854e+06	6713	-6454	2980	818.986	-787.388	363.56
2.03884e+06	3889	-6324	1522	474.458	-771.528	185.684
2.05914e+06	2208	-8902	2385	269.376	-1086.04	290.97
2.07944e+06	1266	-16429	2244	154.452	-2004.34	273.768
2.09974e+06	-2572	-26727	-1285	-313.784	-3260.69	-156.77
2.12005e+06	-12427	-30529	-2953	-1516.09	-3724.54	-360.266
2.14035e+06	-15376	-28605	691	-1875.87	-3489.81	84.302
2.16066e+06	-12955	-20689	588	-1580.51	-2524.06	71.736
2.18096e+06	-13262	-13889	-68	-1617.96	-1694.46	-8.296
2.20127e+06	-13367	-8651	-925	-1630.77	-1055.42	-112.85
2.22157e+06	-12737	-4146	-1558	-1553.91	-505.812	-190.076
2.24187e+06	-11302	85	-1352	-1378.84	10.37	-164.944
2.26217e+06	-9752	2900	-1332	-1189.74	353.8	-162.504
2.28248e+06	-9013	4499	-2658	-1099.59	548.878	-324.276
2.30278e+06	-8106	6306	-3832	-988.932	769.332	-467.504
2.32309e+06	-5599	7946	-2871	-683.078	969.412	-350.262
2.34339e+06	-2877	8184	-937	-350.994	998.448	-114.314
2.36369e+06	-2819	5891	-48	-343.918	718.702	-5.856
2.38399e+06	-5719	2140	-579	-697.718	261.08	-70.638
2.40429e+06	-9718	-2244	-804	-1185.6	-273.768	-98.088
2.4246e+06	-16321	-14723	-900	-1991.16	-1796.21	-109.8
2.4449e+06	-14600	-31429	-603	-1781.2	-3834.34	-73.566
2.4652e+06	-9584	-29876	682	-1169.25	-3644.87	83.204
2.4855e+06	-9460	-26534	931	-1154.12	-3237.15	113.582
2.5058e+06	-6011	-21070	1762	-733.342	-2570.54	214.964
2.52611e+06	-1849	-16215	2678	-225.578	-1978.23	326.716
2.54641e+06	946	-12836	2853	115.412	-1565.99	348.066
2.56671e+06	5530	-11577	3280	674.66	-1412.39	400.16
2.58701e+06	8250	-10129	3958	1006.5	-1235.74	482.876
2.60732e+06	8254	-8105	4718	1006.99	-988.81	575.596
2.62762e+06	8851	-5865	4863	1079.82	-715.53	593.286
2.64792e+06	10020	-4107	5150	1222.44	-501.054	628.3
2.66822e+06	8270	-3828	4212	1008.94	-467.016	513.864
2.68853e+06	5005	-4311	2370	610.61	-525.942	289.14
2.70883e+06	2981	-5513	1476	363.682	-672.586	180.072
2.72913e+06	3158	-10620	2714	385.276	-1295.64	331.108
2.74943e+06	1914	-23702	1305	233.508	-2891.64	159.21
2.76973e+06	-3668	-32590	-1086	-447.496	-3975.98	-132.492
2.79003e+06	-16671	-28718	-2048	-2033.86	-3503.6	-249.856
2.81034e+06	-18609	-23096	984	-2270.3	-2817.71	120.048
2.83064e+06	-12712	-13872	487	-1550.86	-1692.38	59.414
2.85094e+06	-11150	-8387	-162	-1360.3	-1023.21	-19.764
2.87124e+06	-9195	-5278	-793	-1121.79	-643.916	-96.746
2.89155e+06	-6596	-2279	-1088	-804.712	-278.038	-132.736
2.91185e+06	-5029	584	-1103	-613.538	71.248	-134.566
2.93215e+06	-4554	2958	-1789	-555.588	360.876	-218.258
2.95245e+06	-4680	4111	-3048	-570.96	501.542	-371.856
2.97275e+06	-4932	4879	-4268	-601.704	595.238	-520.696
2.99306e+06	-4866	5179	-3855	-593.652	631.838	-470.31
3.01336e+06	-4929	4059	-2491	-601.338	495.198	-303.902
3.03366e+06	-5025	1880	-1549	-613.05	229.36	-188.978
3.05396e+06	-6669	-1048	-1350	-813.618	-127.856	-164.7
3.07426e+06	-10289	-8258	-1604	-1255.26	-1007.48	-195.688
3.09457e+06	-13355	-17755	-1144	-1629.31	-2166.11	-139.568
3.11487e+06	-12392	-19199	1769	-1511.82	-2342.28	215.818
3.13517e+06	-10919	-20168	2004	-1332.12	-2460.5	244.488
3.15547e+06	-9300	-19511	322	-1134.6	-2380.34	39.284
3.17578e+06	-6472	-15349	180	-789.584	-1872.58	21.96
3.19608e+06	-4046	-12776	872	-493.612	-1558.67	106.384
3.21638e+06	-1743	-11655	1847	-212.646	-1421.91	225.334
3.23668e+06	124	-11011	2088	15.128	-1343.34	254.736
3.25698e+06	1479	-10890	849	180.438	-1328.58	103.578
3.27728e+06	3293	-10398	-463	401.746	-1268.56	-56.486
3.29759e+06	5442	-8480	112	663.924	-1034.56	13.664
3.31789e+06	8294	-6664	1223	1011.87	-813.008	149.206
3.33819e+06	10639	-6208	2083	1297.96	-757.376	254.126
3.3585e+06	8244	-5778	2123	1005.77	-704.916	259.006
3.3788e+06	5933	-6266	2640	723.826	-764.452	322.08
3.39911e+06	5170	-12900	3530	630.74	-1573.8	430.66
3.41941e+06	1222	-23460	2157	149.084	-2862.12	263.154
3.43972e+06	-3772	-28873	1639	-460.184	-3522.51	199.958
3.46002e+06	-14726	-31201	2822	-1796.57	-3806.52	344.284
3.48032e+06	-19527	-29200	3661	-2382.29	-3562.4	446.642
3.50063e+06	-16967	-19137	3242	-2069.97	-2334.71	395.524
3.52093e+06	-15748	-13133	2522	-1921.26	-1602.23	307.684
3.54124e+06	-14763	-7342	1284	-1801.09	-895.724	156.648
3.56154e+06	-12838	-2069	-405	-1566.24	-252.418	-49.41
3.58184e+06	-11307	2341	-1650	-1379.45	285.602	-201.3
3.60214e+06	-9111	5288	-2543	-1111.54	645.136	-310.246
3.62245e+06	-7276	7426	-2903	-887.672	905.972	-354.166
3.64275e+06	-6235	8605	-4123	-760.67	1049.81	-503.006
3.66305e+06	-5417	8165	-4064	-660.874	996.13	-495.808
3.68336e+06	-4882	5796	-3450	-595.604	707.112	-420.9
3.70366e+06	-4770	2749	-2296	-581.94	335.378	-280.112
3.72396e+06	-6170	-255	-2076	-752.74	-31.11	-253.272
3.74427e+06	-9948	-4324	-3602	-1213.66	-527.528	-439.444
3.76457e+06	-13411	-13556	-2470	-1636.14	-1653.83	-301.34
3.78488e+06	-13677	-23497	-1319	-1668.59	-2866.63	-160.918
3.80518e+06	-13562	-28947	-1026	-1654.56	-3531.53	-125.172
3.82548e+06	-12472	-27137	133	-1521.58	-3310.71	16.226
3.84578e+06	-9161	-21803	1717	-1117.64	-2659.97	209.474
3.86609e+06	-6083	-16184	2440	-742.126	-1974.45	297.68
3.88639e+06	-3932	-11596	1940	-479.704	-1414.71	236.68
3.90669e+06	-1822	-8333	1845	-222.284	-1016.63	225.09
3.927e+06	262	-8129	2110	31.964	-991.738	257.42
3.9473e+06	3582	-11201	1077	437.004	-1366.52	131.394
3.9676e+06	11666	-12833	189	1423.25	-1565.63	23.058
3.9879e+06	17718	-10546	637	2161.6	-1286.61	77.714
4.0082e+06	11287	-9807	1897	1377.01	-1196.45	231.434
4.0285e+06	8160	-11756	899	995.52	-1434.23	109.678
4.0488e+06	5858	-12567	-110	714.676	-1533.17	-13.42
4.0691e+06	1608	-16606	336	196.176	-2025.93	40.992
4.08941e+06	-4547	-23241	683	-554.734	-2835.4	83.326
4.10971e+06	-11828	-27231	938	-1443.02	-3322.18	114.436
4.13002e+06	-16747	-27471	2330	-2043.13	-3351.46	284.26
4.15032e+06	-18781	-24441	2829	-2291.28	-2981.8	345.138
4.17062e+06	-18599	-17326	1805	-2269.08	-2113.77	220.21
4.19093e+06	-17365	-10396	1185	-2118.53	-1268.31	144.57
4.21123e+06	-14167	-4879	417	-1728.37	-595.238	50.874
4.23154e+06	-10890	-91	-334	-1328.58	-11.102	-40.748
4.25184e+06	-8005	2293	-601	-976.61	279.746	-73.322
4.27214e+06	-6280	2307	-949	-766.16	281.454	-115.778
4.29244e+06	-5519	2011	-1737	-673.318	245.342	-211.914
4.31274e+06	-4753	2081	-2603	-579.866	253.882	-317.566
4.33305e+06	-3852	2573	-2265	-469.944	313.906	-276.33
4.35335e+06	-3615	2368	-1235	-441.03	288.896	-150.67
4.37365e+06	-3679	1069	-1100	-448.838	130.418	-134.2
4.39395e+06	-3603	-88	-954	-439.566	-10.736	-116.388
4.41426e+06	-4409	-1444	-112	-537.898	-176.168	-13.664
4.43456e+06	-7539	-6730	1182	-919.758	-821.06	144.204
4.45486e+06	-13050	-14600	-1554	-1592.1	-1781.2	-189.588
4.47516e+06	-14905	-17911	-189	-1818.41	-2185.14	-23.058
4.49546e+06	-11458	-20623	2553	-1397.88	-2516.01	311.466
4.51576e+06	-8825	-20141	3189	-1076.65	-2457.2	389.058
4.53606e+06	-5765	-17148	2797	-703.33	-2092.06	341.234
4.55637e+06	-2600	-14938	2067	-317.2	-1822.44	252.174
4.57667e+06	409	-13089	2384	49.898	-1596.86	290.848
4.59697e+06	3490	-11061	2693	425.78	-1349.44	328.546
4.61728e+06	5273	-9005	1996	643.306	-1098.61	243.512
4.63758e+06	6033	-6970	1278	736.026	-850.34	155.916
4.65788e+06	8045	-5165	1462	981.49	-630.13	178.364
4.67818e+06	11057	-4847	2275	1348.95	-591.334	277.55
4.69848e+06	9959	-5831	1510	1215	-711.382	184.22
4.71879e+06	7643	-5877	244	932.446	-716.994	29.768
4.73909e+06	6923	-6993	-413	844.606	-853.146	-50.386
4.75939e+06	6177	-12518	-897	753.594	-1527.2	-109.434
4.77969e+06	2198	-22946	-1282	268.156	-2799.41	-156.404
4.8e+06	-6083	-28939	-4960	-742.126	-3530.56	-605.12
4.8203e+06	-14073	-31284	-4399	-1716.91	-3816.65	-536.678
4.8406e+06	-15956	-28230	-1068	-1946.63	-3444.06	-130.296
4.86091e+06	-14486	-19108	0	-1767.29	-2331.18	0
4.88121e+06	-13229	-12352	70	-1613.94	-1506.94	8.54
4.90152e+06	-11275	-7636	-513	-1375.55	-931.592	-62.586
4.92182e+06	-10235	-4339	-896	-1248.67	-529.358	-109.312
4.94212e+06	-9551	-2112	-1485	-1165.22	-257.664	-181.17
4.96242e+06	-8867	-165	-1753	-1081.77	-20.13	-213.866
4.98272e+06	-8163	2040	-2146	-995.886	248.88	-261.812
5.00302e+06	-7756	4241	-2767	-946.232	517.402	-337.574
5.02332e+06	-7379	5262	-3348	-900.238	641.964	-408.456
5.04362e+06	-6145	5059	-2445	-749.69	617.198	-298.29
5.06393e+06	-4651	3390	-1356	-567.422	413.58	-165.432
5.08423e+06	-4144	1153	-222	-505.568	140.666	-27.084
5.10453e+06	-6453	-2196	-304	-787.266	-267.912	-37.088
5.12483e+06	-10047	-9563	319	-1225.73	-1166.69	38.918
5.14514e+06	-11009	-17951	731	-1343.1	-2190.02	89.182
5.16544e+06	-9309	-18789	3730	-1135.7	-2292.26	455.06
5.18574e+06	-9386	-21530	4142	-1145.09	-2626.66	505.324
5.20604e+06	-7639	-21793	2472	-931.958	-2658.75	301.584
5.22634e+06	-4504	-17511	2815	-549.488	-2136.34	343.43
5.24665e+06	-1001	-15527	3207	-122.122	-1894.29	391.254
5.26695e+06	1923	-12877	3109	234.606	-1570.99	379.298
5.28725e+06	4237	-9884	2540	516.914	-1205.85	309.88
5.30755e+06	5453	-7527	1259	665.266	-918.294	153.598
5.32785e+06	6496	-5173	492	792.512	-631.106	60.024
5.34815e+06	8889	-2695	327	1084.46	-328.79	39.894
5.36845e+06	11107	-2134	1139	1355.05	-260.348	138.958
5.38875e+06	9741	-3198	1393	1188.4	-390.156	169.946
5.40906e+06	8021	-4792	1237	978.562	-584.624	150.914
5.42936e+06	7543	-8353	853	920.246	-1019.07	104.066
5.44966e+06	4852	-15511	1213	591.944	-1892.34	147.986
5.46996e+06	-583	-26465	1739	-71.126	-3228.73	212.158
5.49026e+06	-5781	-29323	-88	-705.282	-3577.41	-10.736
5.51056e+06	-14596	-26788	902	-1780.71	-3268.14	110.044
5.53087e+06	-15729	-24242	1212	-1918.94	-2957.52	147.864
5.55117e+06	-13022	-17455	945	-1588.68	-2129.51	115.29
5.57148e+06	-12536	-12468	-229	-1529.39	-1521.1	-27.938
5.59178e+06	-10988	-7007	-1018	-1340.54	-854.854	-124.196
5.61207e+06	-9579	-1758	-1446	-1168.64	-214.476	-176.412
5.63238e+06	-8816	2659	-1993	-1075.55	324.398	-243.146
5.65268e+06	-7509	5914	-1883	-916.098	721.508	-229.726
5.67298e+06	-5486	6904	-1953	-669.292	842.288	-238.266
5.69328e+06	-4462	6264	-3004	-544.364	764.208	-366.488
5.71358e+06	-4392	5628	-2274	-535.824	686.616	-277.428
5.73389e+06	-4312	4313	66	-526.064	526.186	8.052
5.75419e+06	-5175	1367	1497	-631.35	166.774	182.634
5.77449e+06	-8307	-3108	-453	-1013.45	-379.176	-55.266
5.7948e+06	-12364	-10771	-953	-1508.41	-1314.06	-116.266
5.8151e+06	-12460	-20319	680	-1520.12	-2478.92	82.96
5.8354e+06	-9976	-24262	920	-1217.07	-2959.96	112.24
5.8557e+06	-7791	-21026	-678	-950.502	-2565.17	-82.716
5.876e+06	-5737	-16121	-871	-699.914	-1966.76	-106.262
5.89631e+06	-3321	-14627	-135	-405.162	-1784.49	-16.47
5.91661e+06	-1151	-14502	477	-140.422	-1769.24	58.194
5.93691e+06	59	-13799	-464	7.198	-1683.48	-56.608
5.95722e+06	1595	-11774	-1383	194.59	-1436.43	-168.726
5.97752e+06	2990	-8579	-1076	364.78	-1046.64	-131.272
5.99782e+06	4449	-6299	-22	542.778	-768.478	-2.684
6.01812e+06	6237	-4983	981	760.914	-607.926	119.682
6.03842e+06	7655	-4774	185	933.91	-582.428	22.57
6.05871e+06	7001	-5361	-15	854.122	-654.042	-1.83
6.07901e+06	5617	-5244	206	685.274	-639.768	25.132
6.09931e+06	5049	-7021	281	615.978	-856.562	34.282
6.11961e+06	2809	-17703	109	342.698	-2159.77	13.298
6.13991e+06	-1559	-30937	-991	-190.198	-3774.31	-120.902
6.16021e+06	-6853	-29886	-1386	-836.066	-3646.09	-169.092
6.18051e+06	-18279	-27175	-440	-2230.04	-3315.35	-53.68
6.20081e+06	-17153	-20720	1073	-2092.67	-2527.84	130.906
6.22111e+06	-12419	-14019	858	-1515.12	-1710.32	104.676
6.24141e+06	-10327	-10658	1001	-1259.89	-1300.28	122.122
6.26171e+06	-9469	-6817	1232	-1155.22	-831.674	150.304
6.28201e+06	-8965	-2984	645	-1093.73	-364.048	78.69
6.3023e+06	-9126	1443	-403	-1113.37	176.046	-49.166
6.32261e+06	-8803	5867	-1047	-1073.97	715.774	-127.734
6.34291e+06	-7874	8819	-2307	-960.628	1075.92	-281.454
6.36321e+06	-6545	9920	-3276	-798.49	1210.24	-399.672
6.38351e+06	-5457	8747	-2273	-665.754	1067.13	-277.306
6.40381e+06	-5879	4755	-1763	-717.238	580.11	-215.086
6.42411e+06	-6647	441	-1778	-810.934	53.802	-216.916
6.44441e+06	-7903	-3738	-2130	-964.166	-456.036	-259.86
6.46472e+06	-10073	-8414	-1882	-1228.91	-1026.51	-229.604
6.48502e+06	-12123	-12342	-2239	-1479.01	-1505.72	-273.158
6.50532e+06	-13480	-19294	-3060	-1644.56	-2353.87	-373.32
6.52562e+06	-13209	-27271	-4564	-1611.5	-3327.06	-556.808
6.54592e+06	-9476	-22556	-2901	-1156.07	-2751.83	-353.922
6.56623e+06	-5791	-19774	-1423	-706.502	-2412.43	-173.606
6.58653e+06	-3220	-17529	-578	-392.84	-2138.54	-70.516
6.60683e+06	-1036	-14167	-949	-126.392	-1728.37	-115.778
6.62714e+06	901	-11290	-1144	109.922	-1377.38	-139.568
6.64744e+06	3342	-8336	-760	407.724	-1016.99	-92.72
6.66774e+06	6195	-5666	-39	755.79	-691.252	-4.758
6.68804e+06	9530	-4575	1351	1162.66	-558.15	164.822
6.70834e+06	10633	-5520	1278	1297.23	-673.44	155.916
6.72864e+06	7804	-6574	644	952.088	-802.028	78.568
6.74894e+06	6386	-7177	744	779.092	-875.594	90.768
6.76924e+06	5624	-9714	734	686.128	-1185.11	89.548
6.78955e+06	2927	-16170	-469	357.094	-1972.74	-57.218
6.80985e+06	-1281	-25478	-1509	-156.282	-3108.32	-184.098
6.83015e+06	-9244	-29049	-2600	-1127.77	-3543.98	-317.2
6.85045e+06	-17449	-27676	-2315	-2128.78	-3376.47	-282.43
6.87076e+06	-17170	-22080	-831	-2094.74	-2693.76	-101.382
6.89106e+06	-15115	-15260	880	-1844.03	-1861.72	107.36
6.91136e+06	-15425	-11029	412	-1881.85	-1345.54	50.264
6.93166e+06	-13508	-6819	-579	-1647.98	-831.918	-70.638
6.95196e+06	-11288	-3067	-1357	-1377.14	-374.174	-165.554
6.97226e+06	-9546	159	-1189	-1164.61	19.398	-145.058
6.99257e+06	-7977	2818	-1208	-973.194	343.796	-147.376
7.01287e+06	-6567	5445	-2157	-801.174	664.29	-263.154
7.03316e+06	-5335	7113	-3045	-650.87	867.786	-371.49
7.05346e+06	-4634	7070	-2307	-565.348	862.54	-281.454
7.07376e+06	-4124	5105	-1552	-503.128	622.81	-189.344
7.09406e+06	-3945	2528	-885	-481.29	308.416	-107.97
7.11436e+06	-4943	-220	-460	-603.046	-26.84	-56.12
7.13467e+06	-8355	-4300	-486	-1019.31	-524.6	-59.292
7.15497e+06	-12998	-13864	-230	-1585.76	-1691.41	-28.06
7.17527e+06	-13131	-21829	-135	-1601.98	-2663.14	-16.47
7.19557e+06	-10630	-19784	1145	-1296.86	-2413.65	139.69
7.21587e+06	-9913	-17898	2131	-1209.39	-2183.56	259.982
7.23618e+06	-6868	-17672	3735	-837.896	-2155.98	455.67
7.25648e+06	-3792	-16174	3810	-462.624	-1973.23	464.82
7.27678e+06	-2079	-12597	3573	-253.638	-1536.83	435.906
7.29708e+06	-859	-9053	3661	-104.798	-1104.47	446.642
7.31738e+06	50	-7745	3107	6.1	-944.89	379.054
7.33768e+06	1426	-7707	2896	173.972	-940.254	353.312
7.35798e+06	3782	-7468	2966	461.404	-911.096	361.852
7.37828e+06	7268	-5708	2721	886.696	-696.376	331.962
7.39858e+06	9954	-5035	2305	1214.39	-614.27	281.21
7.41888e+06	7651	-6821	1804	933.422	-832.162	220.088
7.43918e+06	4322	-8687	2137	527.284	-1059.81	260.714
7.45948e+06	3585	-12051	2764	437.37	-1470.22	337.208
7.47978e+06	2143	-16965	3318	261.446	-2069.73	404.796
7.50008e+06	-561	-20542	3195	-68.442	-2506.12	389.79
7.52038e+06	-9354	-22683	2170	-1141.19	-2767.33	264.74
7.54068e+06	-19738	-24466	2894	-2408.04	-2984.85	353.068
7.56099e+06	-15810	-19032	3869	-1928.82	-2321.9	472.018
7.58129e+06	-12792	-14820	2753	-1560.62	-1808.04	335.866
7.60159e+06	-13045	-11575	1030	-1591.49	-1412.15	125.66
7.62189e+06	-10895	-7315	-586	-1329.19	-892.43	-71.492
7.64219e+06	-9103	-2987	-1305	-1110.57	-364.414	-159.21
7.6625e+06	-7732	594	-1376	-943.304	72.468	-167.872
7.6828e+06	-6892	2184	-1894	-840.824	266.448	-231.068
7.7031e+06	-6779	2878	-2784	-827.038	351.116	-339.648
7.7234e+06	-6291	4268	-3125	-767.502	520.696	-381.25
7.7437e+06	-4729	5219	-2385	-576.938	636.718	-290.97
7.764e+06	-3427	4932	-918	-418.094	601.704	-111.996
7.7843e+06	-3676	3904	157	-448.472	476.288	19.154
7.8046e+06	-4873	1671	626	-594.506	203.862	76.372
7.8249e+06	-7686	-2477	1558	-937.692	-302.194	190.076
7.8452e+06	-11624	-9840	3200	-1418.13	-1200.48	390.4
7.8655e+06	-12684	-18969	3126	-1547.45	-2314.22	381.372
7.8858e+06	-13163	-19658	1454	-1605.89	-2398.28	177.388
7.9061e+06	-12170	-13802	5194	-1484.74	-1683.84	633.668
7.9264e+06	-9819	-13970	5500	-1197.92	-1704.34	671
7.9467e+06	-6932	-15746	4335	-845.704	-1921.01	528.87
7.967e+06	-4904	-13511	3641	-598.288	-1648.34	444.202
7.9873e+06	-2693	-10146	3393	-328.546	-1237.81	413.946
8.0076e+06	71	-7943	4553	8.662	-969.046	555.466
8.0279e+06	3690	-7517	3851	450.18	-917.074	469.822
8.0482e+06	10352	-7195	2282	1262.94	-877.79	278.404
8.0685e+06	13601	-8756	1132	1659.32	-1068.23	138.104
8.0888e+06	7818	-8473	1289	953.796	-1033.71	157.258
8.1091e+06	6135	-7129	2496	748.47	-869.738	304.512
8.1294e+06	4542	-10617	4011	554.124	-1295.27	489.342
8.1497e+06	-198	-17982	3593	-24.156	-2193.8	438.346
8.17e+06	-4602	-27050	4162	-561.444	-3300.1	507.764
8.1903e+06	-14681	-24873	2602	-1791.08	-3034.51	317.444
8.2106e+06	-26472	-23504	4198	-3229.58	-2867.49	512.156
8.23091e+06	-16613	-16797	2619	-2026.79	-2049.23	319.518
8.25121e+06	-13730	-13175	2232	-1675.06	-1607.35	272.304
8.27151e+06	-14161	-10600	685	-1727.64	-1293.2	83.57
8.29181e+06	-11566	-6184	-271	-1411.05	-754.448	-33.062
8.31211e+06	-10381	-3068	-1106	-1266.48	-374.296	-134.932
8.33241e+06	-10091	-749	-1513	-1231.1	-91.378	-184.586
8.35271e+06	-9482	1385	-2276	-1156.8	168.97	-277.672
8.37301e+06	-8679	3521	-3519	-1058.84	429.562	-429.318
8.39331e+06	-7487	5389	-3103	-913.414	657.458	-378.566
8.41361e+06	-5947	4676	-1366	-725.534	570.472	-166.652
8.43391e+06	-5361	1899	693	-654.042	231.678	84.546
8.45421e+06	-5045	-1253	1078	-615.49	-152.866	131.516
8.47451e+06	-4386	-3986	-487	-535.092	-486.292	-59.414
8.49481e+06	-3610	-5165	-853	-440.42	-630.13	-104.066
8.51511e+06	-3063	-7455	-653	-373.686	-909.51	-79.666
8.53541e+06	-5572	-14357	-592	-679.784	-1751.55	-72.224
8.55571e+06	-8391	-21377	-1202	-1023.7	-2607.99	-146.644
8.57601e+06	-4802	-18604	222	-585.844	-2269.69	27.084
8.59631e+06	-2225	-14021	173	-271.45	-1710.56	21.106
8.61661e+06	769	-12266	-522	93.818	-1496.45	-63.684
8.63691e+06	2858	-10369	-899	348.676	-1265.02	-109.678
8.65721e+06	2357	-8842	-7	287.554	-1078.72	-0.854
8.67751e+06	444	-8994	1157	54.168	-1097.27	141.154
8.69781e+06	-255	-7936	1607	-31.11	-968.192	196.054
8.71811e+06	1786	-5674	1492	217.892	-692.228	182.024
8.73841e+06	4780	-4303	929	583.16	-524.966	113.338
8.75871e+06	6861	-4950	293	837.042	-603.9	35.746
8.77901e+06	6501	-5923	170	793.122	-722.606	20.74
8.79931e+06	5299	-6827	-399	646.478	-832.894	-48.678
8.81961e+06	5692	-10240	-199	694.424	-1249.28	-24.278
8.83991e+06	5478	-19823	191	668.316	-2418.41	23.302
8.86021e+06	442	-30193	-428	53.924	-3683.55	-52.216
8.88051e+06	-4369	-29930	-627	-533.018	-3651.46	-76.494
8.90081e+06	-16773	-23838	-2527	-2046.31	-2908.24	-308.294
8.92111e+06	-17012	-21319	1029	-2075.46	-2600.92	125.538
8.94141e+06	-10816	-13932	1379	-1319.55	-1699.7	168.238
8.96171e+06	-10845	-10244	983	-1323.09	-1249.77	119.926
8.98201e+06	-11822	-6089	-461	-1442.28	-742.858	-56.242
9.00231e+06	-10406	-1724	-1437	-1269.53	-210.328	-175.314
9.02261e+06	-9454	929	-1380	-1153.39	113.338	-168.36
9.04291e+06	-9043	3207	-1285	-1103.25	391.254	-156.77
9.06321e+06	-7802	5525	-2193	-951.844	674.05	-267.546
9.08351e+06	-6130	6448	-3155	-747.86	786.656	-384.91
9.10381e+06	-5003	6162	-2807	-610.366	751.764	-342.454
9.12412e+06	-4663	4419	-1455	-568.886	539.118	-177.51
9.14442e+06	-4317	2321	-660	-526.674	283.162	-80.52
9.16472e+06	-5446	35	-584	-664.412	4.27	-71.248
9.18502e+06	-8955	-4953	-33	-1092.51	-604.266	-4.026
9.20532e+06	-12113	-15518	1320	-1477.79	-1893.2	161.04
9.22562e+06	-10859	-22924	3297	-1324.8	-2796.73	402.234
9.24592e+06	-9561	-22721	4132	-1166.44	-2771.96	504.104
9.26623e+06	-9076	-20525	4560	-1107.27	-2504.05	556.32
9.28652e+06	-6436	-18270	5225	-785.192	-2228.94	637.45
9.30683e+06	-3702	-15313	5459	-451.644	-1868.19	665.998
9.32713e+06	-1983	-11859	5121	-241.926	-1446.8	624.762
9.34744e+06	711	-9122	4790	86.742	-1112.88	584.38
9.36774e+06	3129	-6338	4081	381.738	-773.236	497.882
9.38804e+06	5415	-4168	3509	660.63	-508.496	428.098
9.40834e+06	7589	-3499	2874	925.858	-426.878	350.628
9.42864e+06	8794	-4138	3230	1072.87	-504.836	394.06
9.44894e+06	7367	-4493	3112	898.774	-548.146	379.664
9.46924e+06	5680	-4642	2267	692.96	-566.324	276.574
9.48954e+06	4754	-6059	1245	579.988	-739.198	151.89
9.50985e+06	3885	-10348	2137	473.97	-1262.46	260.714
9.53015e+06	2445	-18000	2829	298.29	-2196	345.138
9.55045e+06	-1133	-26632	2669	-138.226	-3249.1	325.618
9.57075e+06	-7118	-27001	1196	-868.396	-3294.12	145.912
9.59105e+06	-18590	-21003	955	-2267.98	-2562.37	116.51
9.61135e+06	-15861	-16756	2746	-1935.04	-2044.23	335.012
9.63165e+06	-11132	-12162	1581	-1358.1	-1483.76	192.882
9.65194e+06	-11040	-8850	33	-1346.88	-1079.7	4.026
9.67224e+06	-9724	-5272	-626	-1186.33	-643.184	-76.372
9.69254e+06	-8463	-2693	-1404	-1032.49	-328.546	-171.288
9.71284e+06	-8018	-339	-1691	-978.196	-41.358	-206.302
9.73314e+06	-7220	1820	-1878	-880.84	222.04	-229.116
9.75344e+06	-6106	3519	-2433	-744.932	429.318	-296.826
9.77375e+06	-5087	4170	-2633	-620.614	508.74	-321.226
9.79405e+06	-4554	3513	-1540	-555.588	428.586	-187.88
9.81435e+06	-4069	2268	-440	-496.418	276.696	-53.68
9.83465e+06	-3659	964	-322	-446.398	117.608	-39.284
9.85495e+06	-5592	-2473	-710	-682.224	-301.706	-86.62
9.87524e+06	-10026	-12306	645	-1223.17	-1501.33	78.69
9.89554e+06	-10727	-22084	596	-1308.69	-2694.25	72.712
9.91584e+06	-7587	-19870	2376	-925.614	-2424.14	289.872
9.93614e+06	-7181	-18449	1745	-876.082	-2250.78	212.89
9.95644e+06	-5559	-16568	1516	-678.198	-2021.3	184.952
9.97674e+06	-2849	-15462	1792	-347.578	-1886.36	218.624
9.99704e+06	-959	-14355	2090	-116.998	-1751.31	254.98
1.00173e+07	557	-11530	2430	67.954	-1406.66	296.46
1.00376e+07	1695	-8289	2181	206.79	-1011.26	266.082
1.00579e+07	2606	-5889	1815	317.932	-718.458	221.43
1.00782e+07	3313	-4960	2076	404.186	-605.12	253.272
1.00985e+07	3812	-4780	1931	465.064	-583.16	235.582
1.01188e+07	4951	-3939	1618	604.022	-480.558	197.396
1.01391e+07	6508	-3118	1623	793.976	-380.396	198.006
1.01594e+07	6503	-3997	1469	793.366	-487.634	179.218
1.01797e+07	4581	-6285	922	558.882	-766.77	112.484
1.02e+07	3613	-10322	1143	440.786	-1259.28	139.446
1.02203e+07	1968	-17386	1863	240.096	-2121.09	227.286
1.02406e+07	-3235	-26210	646	-394.67	-3197.62	78.812
1.02609e+07	-10533	-24530	-1567	-1285.03	-2992.66	-191.174
1.02812e+07	-13184	-20722	979	-1608.45	-2528.08	119.438
1.03015e+07	-11637	-17249	1472	-1419.71	-2104.38	179.584
1.03218e+07	-10239	-12933	764	-1249.16	-1577.83	93.208
1.03421e+07	-10157	-9590	167	-1239.15	-1169.98	20.374
1.03624e+07	-9428	-6239	-987	-1150.22	-761.158	-120.414
1.03827e+07	-8507	-2575	-1388	-1037.85	-314.15	-169.336
1.0403e+07	-7659	749	-1099	-934.398	91.378	-134.078
1.04233e+07	-6740	2899	-812	-822.28	353.678	-99.064
1.04436e+07	-6225	3889	-1659	-759.45	474.458	-202.398
1.04639e+07	-5781	4162	-2790	-705.282	507.764	-340.38
1.04842e+07	-5046	3557	-2637	-615.612	433.954	-321.714
1.05045e+07	-4643	1869	-1008	-566.446	228.018	-122.976
1.05248e+07	-4864	-173	-570	-593.408	-21.106	-69.54
1.05451e+07	-6690	-3350	-570	-816.18	-408.7	-69.54
1.05654e+07	-10061	-10419	-1010	-1227.44	-1271.12	-123.22
1.05857e+07	-11119	-18529	-671	-1356.52	-2260.54	-81.862
1.0606e+07	-9108	-17079	1255	-1111.18	-2083.64	153.11
1.06263e+07	-9340	-16321	1165	-1139.48	-1991.16	142.13
1.06466e+07	-8903	-18024	-382	-1086.17	-2198.93	-46.604
1.06669e+07	-5938	-17073	44	-724.436	-2082.91	5.368
1.06872e+07	-2488	-15493	1413	-303.536	-1890.15	172.386
1.07075e+07	-442	-13468	2292	-53.924	-1643.1	279.624
1.07278e+07	369	-11213	1343	45.018	-1367.99	163.846
1.07481e+07	1265	-9346	-216	154.33	-1140.21	-26.352
1.07684e+07	3499	-8417	-762	426.878	-1026.87	-92.964
1.07887e+07	7058	-8190	152	861.076	-999.18	18.544
1.0809e+07	9650	-7349	1622	1177.3	-896.578	197.884
1.08293e+07	8628	-6364	2488	1052.62	-776.408	303.536
1.08496e+07	5699	-6574	1988	695.278	-802.028	242.536
1.08699e+07	3734	-8472	1085	455.548	-1033.58	132.37
1.08902e+07	1459	-13082	764	177.998	-1596	93.208
1.09105e+07	-1290	-17989	1300	-157.38	-2194.66	158.6
1.09308e+07	-4321	-19312	1437	-527.162	-2356.06	175.314
1.09511e+07	-7963	-20616	1173	-971.486	-2515.15	143.106
1.09714e+07	-12407	-20403	1040	-1513.65	-2489.17	126.88
1.09917e+07	-13813	-17141	2112	-1685.19	-2091.2	257.664
1.1012e+07	-12956	-14380	1936	-1580.63	-1754.36	236.192
1.10323e+07	-11428	-10415	459	-1394.22	-1270.63	55.998
1.10526e+07	-9434	-5517	-436	-1150.95	-673.074	-53.192
1.10729e+07	-7801	-1325	-722	-951.722	-161.65	-88.084
1.10933e+07	-6554	1040	-865	-799.588	126.88	-105.53
1.11136e+07	-5910	1708	-1016	-721.02	208.376	-123.952
1.11339e+07	-5199	1830	-1434	-634.278	223.26	-174.948
1.11542e+07	-4687	1927	-1940	-571.814	235.094	-236.68
1.11745e+07	-4475	1686	-2088	-545.95	205.692	-254.736
1.11948e+07	-4178	919	-1227	-509.716	112.118	-149.694
1.12151e+07	-4656	-833	-294	-568.032	-101.626	-35.868
1.12354e+07	-6409	-3181	-435	-781.898	-388.082	-53.07
1.12557e+07	-9584	-7207	-2039	-1169.25	-879.254	-248.758
1.1276e+07	-11590	-14144	-2952	-1413.98	-1725.57	-360.144
1.12963e+07	-10675	-17578	-1355	-1302.35	-2144.52	-165.31
1.13166e+07	-9672	-18779	130	-1179.98	-2291.04	15.86
1.13369e+07	-7976	-18996	303	-973.072	-2317.51	36.966
1.13572e+07	-5548	-15285	-477	-676.856	-1864.77	-58.194
1.13774e+07	-3946	-13836	-1062	-481.412	-1687.99	-129.564
1.13977e+07	-2857	-14967	-925	-348.554	-1825.97	-112.85
1.1418e+07	-1498	-14248	-494	-182.756	-1738.26	-60.268
1.14383e+07	396	-11074	-609	48.312	-1351.03	-74.298
1.14586e+07	2731	-8094	-290	333.182	-987.468	-35.38
1.14789e+07	5465	-6279	641	666.73	-766.038	78.202
1.14992e+07	8657	-5574	1613	1056.15	-680.028	196.786
1.15195e+07	9045	-5720	2022	1103.49	-697.84	246.684
1.15398e+07	6518	-5655	1549	795.196	-689.91	188.978
1.15602e+07	5213	-6127	478	635.986	-747.494	58.316
1.15805e+07	4652	-10858	-1733	567.544	-1324.68	-211.426
1.16008e+07	1637	-19379	-1441	199.714	-2364.24	-175.802
1.16211e+07	-4040	-24388	-2809	-492.88	-2975.34	-342.698
1.16414e+07	-11886	-26564	-4177	-1450.09	-3240.81	-509.594
1.16616e+07	-13727	-22229	-2019	-1674.69	-2711.94	-246.318
1.16819e+07	-13167	-15853	359	-1606.37	-1934.07	43.798
1.17022e+07	-12081	-12076	85	-1473.88	-1473.27	10.37
1.17226e+07	-10795	-8302	-1102	-1316.99	-1012.84	-134.444
1.17429e+07	-9063	-3645	-1545	-1105.69	-444.69	-188.49
1.17632e+07	-8270	497	-1482	-1008.94	60.634	-180.804
1.17835e+07	-8124	2811	-1840	-991.128	342.942	-224.48
1.18038e+07	-7740	4308	-1495	-944.28	525.576	-182.39
1.18241e+07	-6931	4661	-2004	-845.582	568.642	-244.488
1.18444e+07	-6196	4336	-2258	-755.912	528.992	-275.476
1.18647e+07	-5504	3860	-1149	-671.488	470.92	-140.178
1.1885e+07	-5132	2410	23	-626.104	294.02	2.806
1.19053e+07	-6499	-142	-91	-792.878	-17.324	-11.102
1.19256e+07	-8962	-4824	-1120	-1093.36	-588.528	-136.64
1.19459e+07	-10614	-11213	-954	-1294.91	-1367.99	-116.388
1.19662e+07	-10793	-14139	93	-1316.75	-1724.96	11.346
1.19865e+07	-10810	-18054	120	-1318.82	-2202.59	14.64
1.20068e+07	-9137	-21695	-852	-1114.71	-2646.79	-103.944
1.20271e+07	-6899	-18138	1091	-841.678	-2212.84	133.102
1.20474e+07	-5056	-15453	2134	-616.832	-1885.27	260.348
1.20677e+07	-2890	-14726	2123	-352.58	-1796.57	259.006
1.2088e+07	-1029	-12148	2319	-125.538	-1482.06	282.918
1.21083e+07	17	-9423	2152	2.074	-1149.61	262.544
1.21286e+07	1100	-7905	1982	134.2	-964.41	241.804
1.21489e+07	2562	-6844	1636	312.564	-834.968	199.592
1.21692e+07	4574	-5814	1500	558.028	-709.308	183
1.21895e+07	6112	-5244	1677	745.664	-639.768	204.594
1.22098e+07	5723	-4949	1906	698.206	-603.778	232.532
1.22301e+07	4051	-4999	1910	494.222	-609.878	233.02
1.22504e+07	3091	-7083	674	377.102	-864.126	82.228
1.22707e+07	2726	-12508	-432	332.572	-1525.98	-52.704
1.2291e+07	-793	-18364	-495	-96.746	-2240.41	-60.39
1.23113e+07	-7767	-23465	-1354	-947.574	-2862.73	-165.188
1.23316e+07	-13345	-24266	-2761	-1628.09	-2960.45	-336.842
1.23519e+07	-15389	-21584	-899	-1877.46	-2633.25	-109.678
1.23722e+07	-13917	-15640	-655	-1697.87	-1908.08	-79.91
1.23925e+07	-12024	-9770	-724	-1466.93	-1191.94	-88.328
1.24128e+07	-10654	-6777	-1735	-1299.79	-826.794	-211.67
1.24331e+07	-9432	-4288	-1967	-1150.7	-523.136	-239.974
1.24534e+07	-8241	-1537	-1860	-1005.4	-187.514	-226.92
1.24737e+07	-7446	1600	-1794	-908.412	195.2	-218.868
1.2494e+07	-6876	4412	-2205	-838.872	538.264	-269.01
1.25143e+07	-6575	5674	-3177	-802.15	692.228	-387.594
1.25346e+07	-5704	4871	-2866	-695.888	594.262	-349.652
1.25549e+07	-5089	3899	-1266	-620.858	475.678	-154.452
1.25752e+07	-5455	2868	-11	-665.51	349.896	-1.342
1.25955e+07	-7121	1553	-446	-868.762	189.466	-54.412
1.26158e+07	-9973	-2492	-1664	-1216.71	-304.024	-203.008
1.26361e+07	-12895	-13278	-1916	-1573.19	-1619.92	-233.752
1.26564e+07	-11947	-22004	-668	-1457.53	-2684.49	-81.496
1.26767e+07	-8608	-22055	1085	-1050.18	-2690.71	132.37
1.2697e+07	-8020	-20069	1630	-978.44	-2448.42	198.86
1.27174e+07	-6311	-17691	1951	-769.942	-2158.3	238.022
1.27376e+07	-3440	-15468	2181	-419.68	-1887.1	266.082
1.2758e+07	-1019	-12683	2690	-124.318	-1547.33	328.18
1.27782e+07	231	-10133	2874	28.182	-1236.23	350.628
1.27986e+07	1648	-8348	3171	201.056	-1018.46	386.862
1.28189e+07	2711	-6892	3099	330.742	-840.824	378.078
1.28392e+07	4041	-6205	2132	493.002	-757.01	260.104
1.28595e+07	6378	-6205	1649	778.116	-757.01	201.178
1.28798e+07	8993	-5968	2269	1097.15	-728.096	276.818
1.29001e+07	8435	-6294	2764	1029.07	-767.868	337.208
1.29204e+07	5512	-6730	2011	672.464	-821.06	245.342
1.29407e+07	3872	-7990	1368	472.384	-974.78	166.896
1.2961e+07	2938	-12370	1223	358.436	-1509.14	149.206
1.29813e+07	1328	-19795	2529	162.016	-2414.99	308.538
1.30016e+07	-2805	-27209	3392	-342.21	-3319.5	413.824
1.30219e+07	-14689	-24672	871	-1792.06	-3009.98	106.262
1.30422e+07	-17946	-22539	3443	-2189.41	-2749.76	420.046
1.30625e+07	-13093	-13305	2569	-1597.35	-1623.21	313.418
1.30828e+07	-11458	-7900	2269	-1397.88	-963.8	276.818
1.31031e+07	-11684	-4166	1851	-1425.45	-508.252	225.822
1.31234e+07	-11111	-680	1347	-1355.54	-82.96	164.334
1.31437e+07	-10147	2032	488	-1237.93	247.904	59.536
1.3164e+07	-9143	4228	-504	-1115.45	515.816	-61.488
1.31843e+07	-7606	5326	-1264	-927.932	649.772	-154.208
1.32046e+07	-6078	5123	-1940	-741.516	625.006	-236.68
1.32249e+07	-5236	4005	-1505	-638.792	488.61	-183.61
1.32452e+07	-5451	1811	-676	-665.022	220.942	-82.472
1.32655e+07	-6020	-241	-201	-734.44	-29.402	-24.522
1.32858e+07	-7075	-1423	49	-863.15	-173.606	5.978
1.33061e+07	-9554	-5441	-230	-1165.59	-663.802	-28.06
1.33264e+07	-11856	-13215	212	-1446.43	-1612.23	25.864
1.33467e+07	-12360	-16504	-727	-1507.92	-2013.49	-88.694
1.3367e+07	-11499	-13979	269	-1402.88	-1705.44	32.818
1.33873e+07	-12085	-15786	-208	-1474.37	-1925.89	-25.376
1.34076e+07	-10325	-17962	-428	-1259.65	-2191.36	-52.216
1.34279e+07	-7042	-17169	759	-859.124	-2094.62	92.598
1.34482e+07	-4429	-15238	3035	-540.338	-1859.04	370.27
1.34685e+07	-2988	-14261	3090	-364.536	-1739.84	376.98
1.34888e+07	-1248	-12887	2250	-152.256	-1572.21	274.5
1.35091e+07	847	-11076	2333	103.334	-1351.27	284.626
1.35294e+07	2810	-9266	3076	342.82	-1130.45	375.272
1.35497e+07	4795	-7580	3811	584.99	-924.76	464.942
1.357e+07	6923	-5868	4065	844.606	-715.896	495.93
1.35903e+07	6667	-5424	4160	813.374	-661.728	507.52
1.36106e+07	4212	-6101	3444	513.864	-744.322	420.168
1.36309e+07	2255	-6539	1936	275.11	-797.758	236.192
1.36512e+07	706	-8487	1563	86.132	-1035.41	190.686
1.36715e+07	-2006	-14325	2808	-244.732	-1747.65	342.576
1.36918e+07	-7645	-23311	3318	-932.69	-2843.94	404.796
1.37121e+07	-14305	-27513	1982	-1745.21	-3356.59	241.804
1.37324e+07	-18486	-23777	1897	-2255.29	-2900.79	231.434
1.37527e+07	-17256	-17214	3057	-2105.23	-2100.11	372.954
1.37731e+07	-15529	-11861	2907	-1894.54	-1447.04	354.654
1.37934e+07	-13834	-8277	1726	-1687.75	-1009.79	210.572
1.38137e+07	-11519	-5167	1468	-1405.32	-630.374	179.096
1.3834e+07	-9424	-2351	861	-1149.73	-286.822	105.042
1.38543e+07	-7880	88	-183	-961.36	10.736	-22.326
1.38746e+07	-6652	2228	-753	-811.544	271.816	-91.866
1.38949e+07	-5609	4484	-1082	-684.298	547.048	-132.004
1.39152e+07	-4647	5691	-2095	-566.934	694.302	-255.59
1.39355e+07	-3727	6133	-2544	-454.694	748.226	-310.368
1.39558e+07	-3001	5601	-2064	-366.122	683.322	-251.808
1.39761e+07	-3524	3748	-1549	-429.928	457.256	-188.978
1.39964e+07	-5466	957	-1762	-666.852	116.754	-214.964
1.40167e+07	-9662	-3067	-1427	-1178.76	-374.174	-174.094
1.4037e+07	-15910	-12427	-269	-1941.02	-1516.09	-32.818
1.40573e+07	-15232	-19870	1159	-1858.3	-2424.14	141.398
1.40776e+07	-12939	-19424	1898	-1578.56	-2369.73	231.556
1.40979e+07	-12471	-18355	945	-1521.46	-2239.31	115.29
1.41182e+07	-9000	-15934	1474	-1098	-1943.95	179.828
1.41385e+07	-5792	-15201	1717	-706.624	-1854.52	209.474
1.41588e+07	-3129	-13683	2485	-381.738	-1669.33	303.17
1.41791e+07	-1481	-12316	2679	-180.682	-1502.55	326.838
1.41994e+07	-610	-11554	1671	-74.42	-1409.59	203.862
1.42197e+07	1239	-10290	1183	151.158	-1255.38	144.326
1.424e+07	4808	-8805	1484	586.576	-1074.21	181.048
1.42603e+07	7933	-7282	1844	967.826	-888.404	224.968
1.42806e+07	8537	-6888	2591	1041.51	-840.336	316.102
1.43009e+07	5495	-7256	2561	670.39	-885.232	312.442
1.43212e+07	3346	-7958	2091	408.212	-970.876	255.102
1.43415e+07	2086	-11037	2422	254.492	-1346.51	295.484
1.43618e+07	-364	-15703	3755	-44.408	-1915.77	458.11
1.43821e+07	-3399	-18454	5056	-414.678	-2251.39	616.832
1.44024e+07	-12200	-19212	4388	-1488.4	-2343.86	535.336
1.44227e+07	-16368	-19295	5177	-1996.9	-2353.99	631.594
1.4443e+07	-15204	-12818	4970	-1854.89	-1563.8	606.34
1.44633e+07	-13241	-8524	4193	-1615.4	-1039.93	511.546
1.44836e+07	-11715	-6178	3030	-1429.23	-753.716	369.66
1.45039e+07	-9598	-3643	1667	-1170.96	-444.446	203.374
1.45242e+07	-8401	-738	-24	-1024.92	-90.036	-2.928
1.45445e+07	-7092	1740	-935	-865.224	212.28	-114.07
1.45648e+07	-5767	3302	-1207	-703.574	402.844	-147.254
1.45851e+07	-5075	4371	-2078	-619.15	533.262	-253.516
1.46054e+07	-4744	5186	-2807	-578.768	632.692	-342.454
1.46257e+07	-4799	4705	-2951	-585.478	574.01	-360.022
1.4646e+07	-5366	2679	-1759	-654.652	326.838	-214.598
1.46663e+07	-6922	297	-620	-844.484	36.234	-75.64
1.46866e+07	-9866	-2677	-357	-1203.65	-326.594	-43.554
1.47069e+07	-14123	-9188	-1169	-1723.01	-1120.94	-142.618
1.47272e+07	-16502	-15258	-1118	-2013.24	-1861.48	-136.396
1.47475e+07	-15014	-15296	998	-1831.71	-1866.11	121.756
1.47678e+07	-14474	-16885	1400	-1765.83	-2059.97	170.8
1.47881e+07	-11158	-17640	1338	-1361.28	-2152.08	163.236
1.48084e+07	-7571	-17134	1081	-923.662	-2090.35	131.882
1.48287e+07	-4657	-15687	1597	-568.154	-1913.81	194.834
1.4849e+07	-2389	-12905	1953	-291.458	-1574.41	238.266
1.48693e+07	-331	-10213	1610	-40.382	-1245.99	196.42
1.48896e+07	2121	-8148	1334	258.762	-994.056	162.748
1.49099e+07	5010	-6829	1561	611.22	-833.138	190.442
1.49302e+07	8205	-7100	1936	1001.01	-866.2	236.192
1.49505e+07	8943	-8096	2505	1091.05	-987.712	305.61
1.49708e+07	5399	-7614	2190	658.678	-928.908	267.18
1.49911e+07	3312	-7135	1259	404.064	-870.47	153.598
1.50114e+07	1898	-7845	472	231.556	-957.09	57.584
1.50317e+07	-271	-11155	202	-33.062	-1360.91	24.644
1.5052e+07	-2475	-16383	331	-301.95	-1998.73	40.382
1.50723e+07	-6197	-18570	82	-756.034	-2265.54	10.004
1.50926e+07	-11463	-21597	672	-1398.49	-2634.83	81.984
1.51129e+07	-16036	-21695	1510	-1956.39	-2646.79	184.22
1.51332e+07	-17208	-16896	1434	-2099.38	-2061.31	174.948
1.51535e+07	-15682	-12465	624	-1913.2	-1520.73	76.128
1.51738e+07	-13786	-7976	71	-1681.89	-973.072	8.662
1.51941e+07	-11750	-3988	-416	-1433.5	-486.536	-50.752
1.52144e+07	-9088	-1035	-177	-1108.74	-126.27	-21.594
1.52347e+07	-7108	1089	-228	-867.176	132.858	-27.816
1.5255e+07	-6152	2843	-800	-750.544	346.846	-97.6
1.52753e+07	-5458	3797	-1453	-665.876	463.234	-177.266
1.52956e+07	-4486	3752	-1890	-547.292	457.744	-230.58
1.5316e+07	-3549	3796	-1393	-432.978	463.112	-169.946
1.53362e+07	-3246	3709	-646	-396.012	452.498	-78.812
1.53566e+07	-4227	2332	396	-515.694	284.504	48.312
1.53768e+07	-6527	-516	1389	-796.294	-62.952	169.458
1.53972e+07	-10281	-6143	1266	-1254.28	-749.446	154.452
1.54175e+07	-15320	-15357	-192	-1869.04	-1873.55	-23.424
1.54378e+07	-14409	-16594	2100	-1757.9	-2024.47	256.2
1.54581e+07	-12983	-14177	4119	-1583.93	-1729.59	502.518
1.54784e+07	-11883	-14710	3523	-1449.73	-1794.62	429.806
1.54987e+07	-8349	-14159	1468	-1018.58	-1727.4	179.096
1.5519e+07	-5807	-12761	-91	-708.454	-1556.84	-11.102
1.55393e+07	-4318	-11494	-976	-526.796	-1402.27	-119.072
1.55596e+07	-3071	-10681	-1094	-374.662	-1303.08	-133.468
1.55799e+07	-1065	-9454	-1045	-129.93	-1153.39	-127.49
1.56002e+07	1214	-7946	-649	148.108	-969.412	-79.178
1.56205e+07	3526	-6869	-241	430.172	-838.018	-29.402
1.56408e+07	5940	-6182	700	724.68	-754.204	85.4
1.56611e+07	7846	-5838	1602	957.212	-712.236	195.444
1.56814e+07	8014	-5790	2065	977.708	-706.38	251.93
1.57017e+07	6264	-6694	1489	764.208	-816.668	181.658
1.5722e+07	4160	-8511	-578	507.52	-1038.34	-70.516
1.57423e+07	1193	-13486	-1256	145.546	-1645.29	-153.232
1.57626e+07	-4670	-24156	312	-569.74	-2947.03	38.064
1.57829e+07	-12531	-27216	-735	-1528.78	-3320.35	-89.67
1.58032e+07	-17186	-23079	1323	-2096.69	-2815.64	161.406
1.58235e+07	-19631	-20597	4360	-2394.98	-2512.83	531.92
1.58438e+07	-18192	-14120	3471	-2219.42	-1722.64	423.462
1.58641e+07	-15776	-10036	1319	-1924.67	-1224.39	160.918
1.58844e+07	-12857	-5034	840	-1568.55	-614.148	102.48
1.59047e+07	-10424	659	956	-1271.73	80.398	116.632
1.5925e+07	-7965	3335	-308	-971.73	406.87	-37.576
1.59453e+07	-6838	2876	-2110	-834.236	350.872	-257.42
1.59656e+07	-6310	2898	-3252	-769.82	353.556	-396.744
1.59859e+07	-5087	4380	-3843	-620.614	534.36	-468.846
1.60062e+07	-3885	5280	-3939	-473.97	644.16	-480.558
1.60265e+07	-3621	5290	-3339	-441.762	645.38	-407.358
1.60468e+07	-4174	4523	-2421	-509.228	551.806	-295.362
1.60671e+07	-5664	2615	-1369	-691.008	319.03	-167.018
1.60874e+07	-8866	-2058	489	-1081.65	-251.076	59.658
1.61077e+07	-14314	-11549	-441	-1746.31	-1408.98	-53.802
1.6128e+07	-16623	-17750	-481	-2028.01	-2165.5	-58.682
1.61483e+07	-14338	-18213	1321	-1749.24	-2221.99	161.162
1.61686e+07	-12212	-19449	360	-1489.86	-2372.78	43.92
1.61889e+07	-8938	-18263	-1111	-1090.44	-2228.09	-135.542
1.62092e+07	-5579	-16674	-1347	-680.638	-2034.23	-164.334
1.62295e+07	-3252	-14881	-903	-396.744	-1815.48	-110.166
1.62498e+07	-1837	-12386	-651	-224.114	-1511.09	-79.422
1.62701e+07	-360	-9463	-619	-43.92	-1154.49	-75.518
1.62904e+07	1535	-7263	-400	187.27	-886.086	-48.8
1.63107e+07	3752	-6271	-195	457.744	-765.062	-23.79
1.6331e+07	6073	-6065	212	740.906	-739.93	25.864
1.63513e+07	7825	-6287	624	954.65	-767.014	76.128
1.63716e+07	7553	-6426	560	921.466	-783.972	68.32
1.63919e+07	5652	-6237	-12	689.544	-760.914	-1.464
1.64122e+07	3987	-7080	-1045	486.414	-863.76	-127.49
1.64325e+07	2402	-10128	-1499	293.044	-1235.62	-182.878
1.64528e+07	-736	-17255	-1949	-89.792	-2105.11	-237.778
1.64731e+07	-8555	-27096	-2529	-1043.71	-3305.71	-308.538
1.64934e+07	-14261	-26960	-2894	-1739.84	-3289.12	-353.068
1.65137e+07	-16317	-20424	218	-1990.67	-2491.73	26.596
1.6534e+07	-15283	-16029	1271	-1864.53	-1955.54	155.062
1.65543e+07	-14164	-12215	834	-1728.01	-1490.23	101.748
1.65746e+07	-12789	-7880	258	-1560.26	-961.36	31.476
1.65949e+07	-10957	-2945	-275	-1336.75	-359.29	-33.55
1.66152e+07	-8936	2231	-382	-1090.19	272.182	-46.604
1.66355e+07	-7098	5570	-528	-865.956	679.54	-64.416
1.66558e+07	-6329	6224	-1470	-772.138	759.328	-179.34
1.66761e+07	-5924	5840	-2669	-722.728	712.48	-325.618
1.66964e+07	-5488	4961	-3108	-669.536	605.242	-379.176
1.67167e+07	-5248	3711	-2437	-640.256	452.742	-297.314
1.6737e+07	-5173	2453	-946	-631.106	299.266	-115.412
1.67573e+07	-6344	431	-41	-773.968	52.582	-5.002
1.67776e+07	-9398	-2469	-171	-1146.56	-301.218	-20.862
1.67979e+07	-13251	-7259	-435	-1616.62	-885.598	-53.07
1.68182e+07	-16863	-14944	445	-2057.29	-1823.17	54.29
1.68385e+07	-16468	-21213	1455	-2009.1	-2587.99	177.51
1.68588e+07	-13565	-19937	2337	-1654.93	-2432.31	285.114
1.68791e+07	-10903	-17349	2431	-1330.17	-2116.58	296.582
1.68994e+07	-7298	-16894	1745	-890.356	-2061.07	212.89
1.69197e+07	-4342	-15231	1401	-529.724	-1858.18	170.922
1.694e+07	-2769	-12709	1175	-337.818	-1550.5	143.35
1.69603e+07	-1234	-10695	887	-150.548	-1304.79	108.214
1.69806e+07	674	-9059	924	82.228	-1105.2	112.728
1.70009e+07	2509	-7397	1171	306.098	-902.434	142.862
1.70212e+07	4667	-5852	1294	569.374	-713.944	157.868
1.70415e+07	8119	-5452	1343	990.518	-665.144	163.846
1.70618e+07	10080	-6301	1922	1229.76	-768.722	234.484
1.70821e+07	7218	-6755	2044	880.596	-824.11	249.368
1.71024e+07	4678	-6697	1289	570.716	-817.034	157.258
1.71227e+07	3609	-8479	810	440.298	-1034.44	98.82
1.7143e+07	1485	-12493	1267	181.17	-1524.15	154.574
1.71633e+07	-1856	-17356	1647	-226.432	-2117.43	200.934
1.71836e+07	-8922	-24108	1212	-1088.48	-2941.18	147.864
1.72039e+07	-14667	-25740	675	-1789.37	-3140.28	82.35
1.72242e+07	-16057	-20663	1873	-1958.95	-2520.89	228.506
1.72445e+07	-13707	-15482	2232	-1672.25	-1888.8	272.304
1.72648e+07	-12549	-11166	1799	-1530.98	-1362.25	219.478
1.72851e+07	-11284	-7959	742	-1376.65	-970.998	90.524
1.73055e+07	-9742	-4209	-88	-1188.52	-513.498	-10.736
1.73258e+07	-8008	-307	-543	-976.976	-37.454	-66.246
1.73461e+07	-6554	2960	-965	-799.588	361.12	-117.73
1.73664e+07	-5642	5395	-1613	-688.324	658.19	-196.786
1.73867e+07	-5125	6464	-2439	-625.25	788.608	-297.558
1.7407e+07	-4677	5810	-2942	-570.594	708.82	-358.924
1.74273e+07	-4547	4004	-2676	-554.734	488.488	-326.472
1.74476e+07	-4336	2853	-1705	-528.992	348.066	-208.01
1.74679e+07	-4027	1962	-831	-491.294	239.364	-101.382
1.74882e+07	-6410	-82	-563	-782.02	-10.004	-68.686
1.75085e+07	-11890	-3238	-240	-1450.58	-395.036	-29.28
1.75288e+07	-16524	-9645	1564	-2015.93	-1176.69	190.808
1.75491e+07	-18224	-19500	1029	-2223.33	-2379	125.538
1.75694e+07	-16105	-19753	11	-1964.81	-2409.87	1.342
1.75897e+07	-14987	-17071	-21	-1828.41	-2082.66	-2.562
1.761e+07	-11946	-19262	-94	-1457.41	-2349.96	-11.468
1.76303e+07	-7731	-18193	579	-943.182	-2219.55	70.638
1.76506e+07	-5232	-15425	-161	-638.304	-1881.85	-19.642
1.76709e+07	-3441	-13320	-1020	-419.802	-1625.04	-124.44
1.76912e+07	-1512	-11253	-959	-184.464	-1372.87	-116.998
1.77115e+07	558	-9389	-122	68.076	-1145.46	-14.884
1.77318e+07	3009	-7792	268	367.098	-950.624	32.696
1.77521e+07	5557	-6228	483	677.954	-759.816	58.926
1.77724e+07	8675	-6075	508	1058.35	-741.15	61.976
1.77927e+07	9719	-6556	692	1185.72	-799.832	84.424
1.7813e+07	7199	-6764	1053	878.278	-825.208	128.466
1.78333e+07	5041	-7457	1616	615.002	-909.754	197.152
1.78536e+07	2951	-10168	1748	360.022	-1240.5	213.256
1.78739e+07	-1312	-15534	1825	-160.064	-1895.15	222.65
1.78942e+07	-9966	-21028	562	-1215.85	-2565.42	68.564
1.79145e+07	-16644	-23146	1963	-2030.57	-2823.81	239.486
1.79348e+07	-18975	-19034	3999	-2314.95	-2322.15	487.878
1.79551e+07	-17646	-14830	3847	-2152.81	-1809.26	469.334
1.79754e+07	-16980	-11423	2987	-2071.56	-1393.61	364.414
1.79957e+07	-15085	-8395	1067	-1840.37	-1024.19	130.174
1.8016e+07	-13055	-4888	24	-1592.71	-596.336	2.928
1.80363e+07	-10721	-511	25	-1307.96	-62.342	3.05
1.80566e+07	-8546	2475	331	-1042.61	301.95	40.382
1.80769e+07	-6974	3380	-31	-850.828	412.36	-3.782
1.80972e+07	-5808	4151	-588	-708.576	506.422	-71.736
1.81175e+07	-5066	4396	-1596	-618.052	536.312	-194.712
1.81378e+07	-4989	4189	-2509	-608.658	511.058	-306.098
1.81581e+07	-5157	3912	-2064	-629.154	477.264	-251.808
1.81784e+07	-5218	2957	-1221	-636.596	360.754	-148.962
1.81987e+07	-6414	1135	-910	-782.508	138.47	-111.02
1.8219e+07	-9641	-2241	-1276	-1176.2	-273.402	-155.672
1.82393e+07	-13423	-9432	-787	-1637.61	-1150.7	-96.014
1.82596e+07	-14894	-16844	-365	-1817.07	-2054.97	-44.53
1.82799e+07	-13701	-16418	-185	-1671.52	-2003	-22.57
1.83002e+07	-13637	-17317	-193	-1663.71	-2112.67	-23.546
1.83205e+07	-10797	-18681	199	-1317.23	-2279.08	24.278
1.83408e+07	-7189	-18649	86	-877.058	-2275.18	10.492
1.83611e+07	-4130	-16905	242	-503.86	-2062.41	29.524
1.83814e+07	-1778	-13864	787	-216.916	-1691.41	96.014
1.84017e+07	-115	-10360	490	-14.03	-1263.92	59.78
1.8422e+07	1064	-7872	363	129.808	-960.384	44.286
1.84423e+07	2369	-6619	839	289.018	-807.518	102.358
1.84626e+07	4525	-5552	1338	552.05	-677.344	163.236
1.84829e+07	7770	-4540	1603	947.94	-553.88	195.566
1.85032e+07	8240	-6551	1563	1005.28	-799.222	190.686
1.85235e+07	5165	-9098	1249	630.13	-1109.96	152.378
1.85438e+07	4086	-7276	1072	498.492	-887.672	130.784
1.85641e+07	3721	-6259	1186	453.962	-763.598	144.692
1.85844e+07	1655	-9951	2061	201.91	-1214.02	251.442
1.86047e+07	-1359	-18155	3432	-165.798	-2214.91	418.704
1.8625e+07	-4652	-26413	4574	-567.544	-3222.39	558.028
1.86453e+07	-11965	-24620	4581	-1459.73	-3003.64	558.882
1.86656e+07	-16499	-20926	3645	-2012.88	-2552.97	444.69
1.86859e+07	-13787	-13180	2783	-1682.01	-1607.96	339.526
1.87062e+07	-11382	-7915	3412	-1388.6	-965.63	416.264
1.87265e+07	-10994	-6000	2989	-1341.27	-732	364.658
1.87468e+07	-9584	-5045	2237	-1169.25	-615.49	272.914
1.87672e+07	-8119	-3448	1480	-990.518	-420.656	180.56
1.87875e+07	-7226	-1287	1034	-881.572	-157.014	126.148
1.88078e+07	-6266	372	694	-764.452	45.384	84.668
1.88281e+07	-5534	1617	57	-675.148	197.274	6.954
1.88484e+07	-5006	2489	-410	-610.732	303.658	-50.02
1.88687e+07	-4726	2292	-757	-576.572	279.624	-92.354
1.8889e+07	-4628	1649	-431	-564.616	201.178	-52.582
1.89093e+07	-4557	1238	-53	-555.954	151.036	-6.466
1.89296e+07	-4937	1478	592	-602.314	180.316	72.224
1.89499e+07	-7090	529	815	-864.98	64.538	99.43
1.89702e+07	-12057	-6869	-94	-1470.95	-838.018	-11.468
1.89905e+07	-17314	-20812	-2483	-2112.31	-2539.06	-302.926
1.90108e+07	-12372	-23657	174	-1509.38	-2886.15	21.228
1.90311e+07	-7931	-18580	3776	-967.582	-2266.76	460.672
1.90514e+07	-7208	-12694	5078	-879.376	-1548.67	619.516
1.90717e+07	-5341	-12367	3873	-651.602	-1508.77	472.506
1.9092e+07	-2895	-13480	2686	-353.19	-1644.56	327.692
1.91123e+07	-1309	-10996	2402	-159.698	-1341.51	293.044
1.91326e+07	-95	-9412	1950	-11.59	-1148.26	237.9
1.91529e+07	1097	-8734	1186	133.834	-1065.55	144.692
1.91732e+07	2394	-7544	720	292.068	-920.368	87.84
1.91935e+07	3963	-5797	582	483.486	-707.234	71.004
1.92138e+07	5412	-4280	641	660.264	-522.16	78.202
1.92341e+07	6307	-3411	912	769.454	-416.142	111.264
1.92544e+07	6028	-3276	1056	735.416	-399.672	128.832
1.92747e+07	4937	-4321	594	602.314	-527.162	72.468
1.9295e+07	4347	-6184	-391	530.334	-754.448	-47.702
1.93153e+07	4373	-10661	-1161	533.506	-1300.64	-141.642
1.93356e+07	1950	-23247	234	237.9	-2836.13	28.548
1.93559e+07	-1139	-31929	1536	-138.958	-3895.34	187.392
1.93762e+07	-12917	-27221	-1223	-1575.87	-3320.96	-149.206
1.93965e+07	-21883	-22675	288	-2669.73	-2766.35	35.136
1.94168e+07	-15655	-12082	1216	-1909.91	-1474	148.352
1.94371e+07	-10607	-8211	1934	-1294.05	-1001.74	235.948
1.94575e+07	-10463	-7467	294	-1276.49	-910.974	35.868
1.94778e+07	-8641	-4263	423	-1054.2	-520.086	51.606
1.94981e+07	-6789	-1390	248	-828.258	-169.58	30.256
1.95184e+07	-6371	77	-556	-777.262	9.394	-67.832
1.95387e+07	-6582	1064	-1955	-803.004	129.808	-238.51
1.9559e+07	-6029	2473	-2445	-735.538	301.706	-298.29
1.95794e+07	-4810	3907	-2058	-586.82	476.654	-251.076
1.95997e+07	-3714	4220	-1413	-453.108	514.84	-172.386
1.962e+07	-3515	3518	-689	-428.83	429.196	-84.058
1.96403e+07	-4267	2797	-253	-520.574	341.234	-30.866
1.96606e+07	-5936	1920	513	-724.192	234.24	62.586
1.9681e+07	-9192	-3466	768	-1121.42	-422.852	93.696
1.97013e+07	-13789	-15555	1279	-1682.26	-1897.71	156.038
1.97216e+07	-13602	-19670	3754	-1659.44	-2399.74	457.988
1.97419e+07	-11602	-16482	6026	-1415.44	-2010.8	735.172
1.97622e+07	-11161	-16303	5789	-1361.64	-1988.97	706.258
1.97825e+07	-8088	-14843	5264	-986.736	-1810.85	642.208
1.98029e+07	-5435	-12645	4747	-663.07	-1542.69	579.134
1.98232e+07	-3540	-11062	3809	-431.88	-1349.56	464.698
1.98435e+07	-1971	-9229	2697	-240.462	-1125.94	329.034
1.98638e+07	414	-6973	2695	50.508	-850.706	328.79
1.98841e+07	3424	-5322	2829	417.728	-649.284	345.138
1.99044e+07	6493	-4894	2572	792.146	-597.068	313.784
1.99248e+07	7542	-5432	1923	920.124	-662.704	234.606
1.99451e+07	6122	-5725	1517	746.884	-698.45	185.074
1.99654e+07	4189	-5894	1429	511.058	-719.068	174.338
1.99857e+07	3283	-7563	1287	400.526	-922.686	157.014
2.0006e+07	2173	-11921	1732	265.106	-1454.36	211.304
2.00264e+07	-720	-17760	2669	-87.84	-2166.72	325.618
2.00467e+07	-3957	-23464	3247	-482.754	-2862.61	396.134
2.0067e+07	-16233	-22697	-495	-1980.43	-2769.03	-60.39
2.00873e+07	-20067	-19722	2728	-2448.17	-2406.08	332.816
2.01076e+07	-12739	-11458	2264	-1554.16	-1397.88	276.208
2.0128e+07	-10614	-9111	2462	-1294.91	-1111.54	300.364
2.01483e+07	-10712	-8287	1181	-1306.86	-1011.01	144.082
2.01686e+07	-9276	-6039	-188	-1131.67	-736.758	-22.936
2.01889e+07	-8230	-2891	-755	-1004.06	-352.702	-92.11
2.02092e+07	-7347	409	-528	-896.334	49.898	-64.416
2.02296e+07	-6302	3169	-296	-768.844	386.618	-36.112
2.02499e+07	-5046	5022	-604	-615.612	612.684	-73.688
2.02702e+07	-3943	5481	-921	-481.046	668.682	-112.362
2.02905e+07	-3428	4716	-804	-418.216	575.352	-98.088
2.03108e+07	-3841	3129	160	-468.602	381.738	19.52
2.03312e+07	-4438	1309	1606	-541.436	159.698	195.932
2.03515e+07	-6179	-253	1487	-753.838	-30.866	181.414
2.03718e+07	-9917	-4224	347	-1209.87	-515.328	42.334
2.03921e+07	-13462	-12093	801	-1642.36	-1475.35	97.722
2.04124e+07	-14326	-16626	1707	-1747.77	-2028.37	208.254
2.04327e+07	-12992	-20740	1391	-1585.02	-2530.28	169.702
2.04531e+07	-10819	-21129	1966	-1319.92	-2577.74	239.852
2.04734e+07	-7906	-18113	2912	-964.532	-2209.79	355.264
2.04937e+07	-4941	-15279	3234	-602.802	-1864.04	394.548
2.0514e+07	-3184	-11269	3200	-388.448	-1374.82	390.4
2.05343e+07	-1820	-7799	2817	-222.04	-951.478	343.674
2.05547e+07	544	-5866	3185	66.368	-715.652	388.57
2.0575e+07	2876	-4625	2492	350.872	-564.25	304.024
2.05953e+07	5271	-4429	1669	643.062	-540.338	203.618
2.06156e+07	7243	-5037	1391	883.646	-614.514	169.702
2.06359e+07	6643	-5631	1552	810.446	-686.982	189.344
2.06563e+07	4657	-5798	1566	568.154	-707.356	191.052
2.06766e+07	3744	-5520	1230	456.768	-673.44	150.06
2.06969e+07	3688	-6519	1150	449.936	-795.318	140.3
2.07172e+07	3162	-9482	1506	385.764	-1156.8	183.732
2.07375e+07	1120	-14630	2297	136.64	-1784.86	280.234
2.07578e+07	-2904	-23383	2845	-354.288	-2852.73	347.09
2.07782e+07	-8120	-24829	1226	-990.64	-3029.14	149.572
2.07985e+07	-21442	-18277	1428	-2615.92	-2229.79	174.216
2.08188e+07	-17269	-14378	3271	-2106.82	-1754.12	399.062
2.08391e+07	-12508	-9698	2447	-1525.98	-1183.16	298.534
2.08594e+07	-12457	-8347	997	-1519.75	-1018.33	121.634
2.08798e+07	-10209	-5895	569	-1245.5	-719.19	69.418
2.09001e+07	-7877	-2864	468	-960.994	-349.408	57.096
2.09204e+07	-6833	309	18	-833.626	37.698	2.196
2.09407e+07	-6257	2990	-617	-763.354	364.78	-75.274
2.0961e+07	-5671	4991	-831	-691.862	608.902	-101.382
2.09813e+07	-4893	5418	-1700	-596.946	660.996	-207.4
2.10017e+07	-4536	4651	-1638	-553.392	567.422	-199.836
2.1022e+07	-5430	3203	-690	-662.46	390.766	-84.18
2.10423e+07	-6672	1392	714	-813.984	169.824	87.108
2.10626e+07	-9338	-1155	314	-1139.24	-140.91	38.308
2.10829e+07	-14185	-8370	-965	-1730.57	-1021.14	-117.73
2.11032e+07	-16620	-19186	-736	-2027.64	-2340.69	-89.792
2.11236e+07	-12071	-19338	2536	-1472.66	-2359.24	309.392
2.11439e+07	-10113	-19367	2857	-1233.79	-2362.77	348.554
2.11642e+07	-7730	-18146	1984	-943.06	-2213.81	242.048
2.11845e+07	-4617	-16109	1492	-563.274	-1965.3	182.024
2.12048e+07	-2239	-14344	1637	-273.158	-1749.97	199.714
2.12252e+07	-830	-11956	1785	-101.26	-1458.63	217.77
2.12455e+07	853	-9559	1894	104.066	-1166.2	231.068
2.12658e+07	2220	-7439	1686	270.84	-907.558	205.692
2.12861e+07	3587	-6054	1335	437.614	-738.588	162.87
2.13064e+07	5314	-5324	1072	648.308	-649.528	130.784
2.13267e+07	7191	-4983	1499	877.302	-607.926	182.878
2.13471e+07	7973	-5149	2241	972.706	-628.178	273.402
2.13674e+07	6235	-5497	2083	760.67	-670.634	254.126
2.13877e+07	4580	-5755	1105	558.76	-702.11	134.81
2.1408e+07	3617	-6810	649	441.274	-830.82	79.178
2.14283e+07	2480	-9959	1239	302.56	-1215	151.158
2.14486e+07	985	-16259	2424	120.17	-1983.6	295.728
2.1469e+07	-2497	-26306	2290	-304.634	-3209.33	279.38
2.14893e+07	-7533	-26032	440	-919.026	-3175.9	53.68
2.15096e+07	-21501	-20665	1112	-2623.12	-2521.13	135.664
2.15299e+07	-17565	-15961	3158	-2142.93	-1947.24	385.276
2.15502e+07	-13246	-9004	2327	-1616.01	-1098.49	283.894
2.15706e+07	-12459	-5298	531	-1520	-646.356	64.782
2.15909e+07	-9526	-2411	462	-1162.17	-294.142	56.364
2.16112e+07	-6861	-1188	1024	-837.042	-144.936	124.928
2.16315e+07	-5939	-269	692	-724.558	-32.818	84.424
2.16518e+07	-5447	1150	-351	-664.534	140.3	-42.822
2.16722e+07	-4788	2467	-911	-584.136	300.974	-111.142
2.16925e+07	-4185	3172	-1047	-510.57	386.984	-127.734
2.17128e+07	-3799	3093	-827	-463.478	377.346	-100.894
2.17331e+07	-4045	2663	-542	-493.49	324.886	-66.124
2.17534e+07	-5375	1654	-188	-655.75	201.788	-22.936
2.17738e+07	-8387	-951	394	-1023.21	-116.022	48.068
2.17941e+07	-12700	-5546	-134	-1549.4	-676.612	-16.348
2.18144e+07	-15851	-12706	504	-1933.82	-1550.13	61.488
2.18347e+07	-14811	-18004	1820	-1806.94	-2196.49	222.04
2.1855e+07	-11979	-18327	1730	-1461.44	-2235.89	211.06
2.18754e+07	-9721	-16007	1384	-1185.96	-1952.85	168.848
2.18957e+07	-7100	-15114	1568	-866.2	-1843.91	191.296
2.1916e+07	-4568	-15267	1250	-557.296	-1862.57	152.5
2.19363e+07	-2758	-13583	1005	-336.476	-1657.13	122.61
2.19566e+07	-1305	-10942	973	-159.21	-1334.92	118.706
2.1977e+07	765	-9089	1149	93.33	-1108.86	140.178
2.19973e+07	3025	-7871	1323	369.05	-960.262	161.406
2.20176e+07	5198	-6925	1436	634.156	-844.85	175.192
2.20379e+07	6565	-6789	1674	800.93	-828.258	204.228
2.20582e+07	6207	-7067	1828	757.254	-862.174	223.016
2.20786e+07	4121	-7022	1646	502.762	-856.684	200.812
2.20989e+07	2339	-7934	1945	285.358	-967.948	237.29
2.21192e+07	1037	-11253	2172	126.514	-1372.87	264.984
2.21395e+07	-55	-14955	2534	-6.71	-1824.51	309.148
2.21598e+07	-1312	-16626	3043	-160.064	-2028.37	371.246
2.21802e+07	-4113	-18759	3841	-501.786	-2288.6	468.602
2.22005e+07	-12744	-18236	2051	-1554.77	-2224.79	250.222
2.22208e+07	-14381	-16790	4216	-1754.48	-2048.38	514.352
2.22411e+07	-12200	-11821	3596	-1488.4	-1442.16	438.712
2.22614e+07	-11551	-8292	2275	-1409.22	-1011.62	277.55
2.22818e+07	-10395	-4255	1757	-1268.19	-519.11	214.354
2.23021e+07	-8555	-1257	1595	-1043.71	-153.354	194.59
2.23224e+07	-7447	684	1236	-908.534	83.448	150.792
2.23427e+07	-6877	1800	309	-838.994	219.6	37.698
2.2363e+07	-6256	2798	-717	-763.232	341.356	-87.474
2.23834e+07	-5686	4004	-1250	-693.692	488.488	-152.5
2.24037e+07	-5433	4697	-1536	-662.826	573.034	-187.392
2.2424e+07	-5979	4500	-1331	-729.438	549	-162.382
2.24443e+07	-6979	2804	-762	-851.438	342.088	-92.964
2.24646e+07	-9207	-578	-159	-1123.25	-70.516	-19.398
2.2485e+07	-13337	-6835	78	-1627.11	-833.87	9.516
2.25053e+07	-17098	-15233	-277	-2085.96	-1858.43	-33.794
2.25256e+07	-16501	-18080	588	-2013.12	-2205.76	71.736
2.25459e+07	-13947	-18275	621	-1701.53	-2229.55	75.762
2.25663e+07	-11200	-18188	513	-1366.4	-2218.94	62.586
2.25866e+07	-7885	-17622	683	-961.97	-2149.88	83.326
2.26069e+07	-4750	-16028	1151	-579.5	-1955.42	140.422
2.26272e+07	-2353	-13892	1788	-287.066	-1694.82	218.136
2.26475e+07	-841	-12104	1716	-102.602	-1476.69	209.352
2.26679e+07	1246	-10289	2020	152.012	-1255.26	246.44
2.26882e+07	3870	-7866	1942	472.14	-959.652	236.924
2.27085e+07	6412	-6272	1694	782.264	-765.184	206.668
2.27288e+07	7861	-6005	1818	959.042	-732.61	221.796
2.27491e+07	7324	-5890	1942	893.528	-718.58	236.924
2.27695e+07	5659	-4620	2719	690.398	-563.64	331.718
2.27898e+07	4376	-3910	2954	533.872	-477.02	360.388
2.28101e+07	3443	-5820	2381	420.046	-710.04	290.482
2.28304e+07	2105	-10589	2599	256.81	-1291.86	317.078
2.28507e+07	531	-16692	3993	64.782	-2036.42	487.146
2.28711e+07	-2045	-20975	6865	-249.49	-2558.95	837.53
2.28914e+07	-9310	-24198	4865	-1135.82	-2952.16	593.53
2.29117e+07	-17554	-21674	2004	-2141.59	-2644.23	244.488
2.2932e+07	-14559	-14334	2220	-1776.2	-1748.75	270.84
2.29523e+07	-12152	-9393	2019	-1482.54	-1145.95	246.318
2.29727e+07	-11725	-6124	966	-1430.45	-747.128	117.852
2.2993e+07	-9829	-2886	96	-1199.14	-352.092	11.712
2.30133e+07	-7507	-842	-393	-915.854	-102.724	-47.946
2.30336e+07	-6105	865	-984	-744.81	105.53	-120.048
2.30539e+07	-5319	2279	-1573	-648.918	278.038	-191.906
2.30742e+07	-4884	3246	-2129	-595.848	396.012	-259.738
2.30946e+07	-4437	3584	-2306	-541.314	437.248	-281.332
2.31149e+07	-4342	3013	-1853	-529.724	367.586	-226.066
2.31352e+07	-4597	1744	-397	-560.834	212.768	-48.434
2.31555e+07	-6192	371	66	-755.424	45.262	8.052
2.31758e+07	-9773	-3147	-277	-1192.31	-383.934	-33.794
2.31962e+07	-12969	-12484	1075	-1582.22	-1523.05	131.15
2.32165e+07	-13691	-20177	1085	-1670.3	-2461.59	132.37
2.32368e+07	-11231	-17434	2899	-1370.18	-2126.95	353.678
2.32571e+07	-9623	-15526	3388	-1174.01	-1894.17	413.336
2.32775e+07	-6883	-15370	3185	-839.726	-1875.14	388.57
2.32978e+07	-4302	-15185	3049	-524.844	-1852.57	371.978
2.33181e+07	-2398	-13384	3202	-292.556	-1632.85	390.644
2.33384e+07	-1127	-10673	3353	-137.494	-1302.11	409.066
2.33587e+07	67	-8220	2973	8.174	-1002.84	362.706
2.3379e+07	1150	-6174	2469	140.3	-753.228	301.218
2.33994e+07	2413	-4870	1879	294.386	-594.14	229.238
2.34197e+07	3921	-3885	1775	478.362	-473.97	216.55
2.344e+07	4993	-3175	1972	609.146	-387.35	240.584
2.34603e+07	5386	-3187	1682	657.092	-388.814	205.204
2.34806e+07	5050	-4073	779	616.1	-496.906	95.038
2.3501e+07	4560	-5121	180	556.32	-624.762	21.96
2.35213e+07	4545	-7833	1219	554.49	-955.626	148.718
2.35416e+07	2927	-15209	1721	357.094	-1855.5	209.962
2.35619e+07	-2149	-26351	242	-262.178	-3214.82	29.524
2.35822e+07	-10554	-26901	-1628	-1287.59	-3281.92	-198.616
2.36026e+07	-17922	-23986	2742	-2186.48	-2926.29	334.524
2.36229e+07	-14174	-15803	4562	-1729.23	-1927.97	556.564
2.36432e+07	-12179	-9814	3271	-1485.84	-1197.31	399.062
2.36635e+07	-10906	-8534	1665	-1330.53	-1041.15	203.13
2.36839e+07	-9120	-6432	1410	-1112.64	-784.704	172.02
2.37042e+07	-8516	-3544	1228	-1038.95	-432.368	149.816
2.37245e+07	-7658	-633	1116	-934.276	-77.226	136.152
2.37448e+07	-6305	1650	476	-769.21	201.3	58.072
2.37652e+07	-5583	3633	-400	-681.126	443.226	-48.8
2.37855e+07	-5036	5317	-960	-614.392	648.674	-117.12
2.38058e+07	-4392	6400	-1305	-535.824	780.8	-159.21
2.38261e+07	-3958	5299	-246	-482.876	646.478	-30.012
2.38464e+07	-4825	1832	1168	-588.65	223.504	142.496
2.38668e+07	-6884	-3412	2593	-839.848	-416.264	316.346
2.38871e+07	-10746	-11047	1792	-1311.01	-1347.73	218.624
2.39074e+07	-12974	-16568	2029	-1582.83	-2021.3	247.538
2.39277e+07	-11328	-15418	4407	-1382.02	-1881	537.654
2.3948e+07	-10004	-16755	3869	-1220.49	-2044.11	472.018
2.39684e+07	-7022	-16566	3063	-856.684	-2021.05	373.686
2.39887e+07	-4267	-15563	2504	-520.574	-1898.69	305.488
2.4009e+07	-1982	-14623	2418	-241.804	-1784.01	294.996
2.40293e+07	-774	-12235	2085	-94.428	-1492.67	254.37
2.40496e+07	-172	-9094	1499	-20.984	-1109.47	182.878
2.407e+07	688	-6326	1159	83.936	-771.772	141.398
2.40903e+07	2010	-4715	1304	245.22	-575.23	159.088
2.41106e+07	3788	-4203	1335	462.136	-512.766	162.87
2.41309e+07	6054	-4203	1445	738.588	-512.766	176.29
2.41512e+07	7490	-4800	1571	913.78	-585.6	191.662
2.41716e+07	6575	-5689	1007	802.15	-694.058	122.854
2.41919e+07	5040	-6639	258	614.88	-809.958	31.476
2.42122e+07	4120	-8447	33	502.64	-1030.53	4.026
2.42325e+07	2708	-12932	958	330.376	-1577.7	116.876
2.42528e+07	-283	-20523	1431	-34.526	-2503.81	174.582
2.42732e+07	-5414	-25237	1012	-660.508	-3078.91	123.464
2.42935e+07	-13978	-23656	1212	-1705.32	-2886.03	147.864
2.43138e+07	-15014	-20409	3314	-1831.71	-2489.9	404.308
2.43341e+07	-13145	-13683	4051	-1603.69	-1669.33	494.222
2.43544e+07	-12695	-8412	2967	-1548.79	-1026.26	361.974
2.43748e+07	-11539	-4238	1668	-1407.76	-517.036	203.496
2.43951e+07	-9423	-1886	1292	-1149.61	-230.092	157.624
2.44154e+07	-7701	-174	763	-939.522	-21.228	93.086
2.44357e+07	-6597	1745	38	-804.834	212.89	4.636
2.4456e+07	-5655	3069	-502	-689.91	374.418	-61.244
2.44764e+07	-4670	3691	-1013	-569.74	450.302	-123.586
2.44967e+07	-3984	3604	-1105	-486.048	439.688	-134.81
2.4517e+07	-4066	2563	-625	-496.052	312.686	-76.25
2.45373e+07	-4154	844	-133	-506.788	102.968	-16.226
2.45577e+07	-4648	-723	207	-567.056	-88.206	25.254
2.4578e+07	-7181	-3512	133	-876.082	-428.464	16.226
2.45983e+07	-10014	-9544	806	-1221.71	-1164.37	98.332
2.46186e+07	-11570	-15496	1704	-1411.54	-1890.51	207.888
2.46389e+07	-11991	-16914	2095	-1462.9	-2063.51	255.59
2.46593e+07	-11041	-15897	3420	-1347	-1939.43	417.24
2.46796e+07	-9005	-16039	3660	-1098.61	-1956.76	446.52
2.46999e+07	-6009	-15960	3500	-733.098	-1947.12	427
2.47202e+07	-3752	-13919	3191	-457.744	-1698.12	389.302
2.47405e+07	-2023	-11914	2765	-246.806	-1453.51	337.33
2.47609e+07	-833	-9750	2455	-101.626	-1189.5	299.51
2.47812e+07	299	-7793	2235	36.478	-950.746	272.67
2.48015e+07	1766	-6385	1916	215.452	-778.97	233.752
2.48218e+07	3669	-5139	1617	447.618	-626.958	197.274
2.48421e+07	5768	-4846	1905	703.696	-591.212	232.41
2.48625e+07	6297	-5626	2261	768.234	-686.372	275.842
2.48828e+07	4710	-6080	1512	574.62	-741.76	184.464
2.49031e+07	3128	-5943	244	381.616	-725.046	29.768
2.49234e+07	2021	-7669	201	246.562	-935.618	24.522
2.49437e+07	2127	-11819	171	259.494	-1441.92	20.862
2.49641e+07	1455	-15611	-348	177.51	-1904.54	-42.456
2.49844e+07	-1960	-17876	-65	-239.12	-2180.87	-7.93
2.50047e+07	-7625	-23141	1239	-930.25	-2823.2	151.158
2.5025e+07	-10596	-21572	1542	-1292.71	-2631.78	188.124
2.50453e+07	-10995	-14193	1719	-1341.39	-1731.55	209.718
2.50657e+07	-9659	-10080	1465	-1178.4	-1229.76	178.73
2.5086e+07	-7905	-7247	935	-964.41	-884.134	114.07
2.51063e+07	-6521	-4006	587	-795.562	-488.732	71.614
2.51266e+07	-5893	-1068	679	-718.946	-130.296	82.838
2.51469e+07	-5818	1254	570	-709.796	152.988	69.54
2.51672e+07	-6073	2794	-194	-740.906	340.868	-23.668
2.51876e+07	-6327	3712	-1809	-771.894	452.864	-220.698
2.52079e+07	-5988	4086	-2172	-730.536	498.492	-264.984
2.52282e+07	-5511	4185	-1194	-672.342	510.57	-145.668
2.52485e+07	-5577	3484	3	-680.394	425.048	0.366
2.52688e+07	-6602	1351	314	-805.444	164.822	38.308
2.52892e+07	-9792	-2773	73	-1194.62	-338.306	8.906
2.53095e+07	-12534	-10111	658	-1529.15	-1233.54	80.276
2.53298e+07	-13347	-16150	1052	-1628.33	-1970.3	128.344
2.53501e+07	-12775	-16716	605	-1558.55	-2039.35	73.81
2.53704e+07	-12566	-16629	-427	-1533.05	-2028.74	-52.094
2.53908e+07	-11386	-18300	-1157	-1389.09	-2232.6	-141.154
2.54111e+07	-7725	-18947	-828	-942.45	-2311.53	-101.016
2.54314e+07	-4760	-16221	-639	-580.72	-1978.96	-77.958
2.54517e+07	-3032	-13343	-819	-369.904	-1627.85	-99.918
2.5472e+07	-1419	-10976	-943	-173.118	-1339.07	-115.046
2.54924e+07	586	-9657	-568	71.492	-1178.15	-69.296
2.55127e+07	2943	-8478	531	359.046	-1034.32	64.782
2.5533e+07	5308	-7079	1292	647.576	-863.638	157.624
2.55533e+07	6612	-6184	1914	806.664	-754.448	233.508
2.55736e+07	5762	-6458	2179	702.964	-787.876	265.838
2.5594e+07	3275	-7091	1951	399.55	-865.102	238.022
2.56143e+07	1473	-8215	1523	179.706	-1002.23	185.806
2.56346e+07	-477	-11732	1582	-58.194	-1431.3	193.004
2.56549e+07	-3546	-16764	1566	-432.612	-2045.21	191.052
2.56752e+07	-7483	-19988	686	-912.926	-2438.54	83.692
2.56955e+07	-10866	-20216	1372	-1325.65	-2466.35	167.384
2.57159e+07	-13619	-18777	2316	-1661.52	-2290.79	282.552
2.57362e+07	-13468	-15081	1870	-1643.1	-1839.88	228.14
2.57565e+07	-12048	-10791	1617	-1469.86	-1316.5	197.274
2.57768e+07	-10688	-7086	961	-1303.94	-864.492	117.242
2.57971e+07	-9075	-3816	167	-1107.15	-465.552	20.374
2.58175e+07	-7315	-945	198	-892.43	-115.29	24.156
2.58378e+07	-6134	1283	495	-748.348	156.526	60.39
2.58581e+07	-5536	2686	631	-675.392	327.692	76.982
2.58784e+07	-5070	3759	244	-618.54	458.598	29.768
2.58987e+07	-4848	4490	-547	-591.456	547.78	-66.734
2.59191e+07	-5234	3902	-1682	-638.548	476.044	-205.204
2.59394e+07	-6750	2682	-1706	-823.5	327.204	-208.132
2.59597e+07	-6981	629	-498	-851.682	76.738	-60.756
2.598e+07	-7354	-2070	-210	-897.188	-252.54	-25.62
2.60003e+07	-9950	-7138	-1604	-1213.9	-870.836	-195.688
2.60206e+07	-11627	-14727	-2046	-1418.49	-1796.69	-249.612
2.6041e+07	-10801	-17994	-1479	-1317.72	-2195.27	-180.438
2.60613e+07	-9526	-18518	-1071	-1162.17	-2259.2	-130.662
2.60816e+07	-7869	-17412	-864	-960.018	-2124.26	-105.408
2.61019e+07	-6272	-14741	-522	-765.184	-1798.4	-63.684
2.61222e+07	-4329	-14401	-190	-528.138	-1756.92	-23.18
2.61426e+07	-2884	-14541	317	-351.848	-1774	38.674
2.61629e+07	-1867	-13251	674	-227.774	-1616.62	82.228
2.61832e+07	-589	-11089	918	-71.858	-1352.86	111.996
2.62035e+07	1039	-9010	1288	126.758	-1099.22	157.136
2.62238e+07	3614	-8145	1851	440.908	-993.69	225.822
2.62441e+07	6527	-7659	2297	796.294	-934.398	280.234
2.62645e+07	7616	-7166	2606	929.152	-874.252	317.932
2.62848e+07	5376	-7197	2399	655.872	-878.034	292.678
2.63051e+07	3163	-6639	1994	385.886	-809.958	243.268
2.63254e+07	1902	-6659	1622	232.044	-812.398	197.884
2.63457e+07	536	-9240	1023	65.392	-1127.28	124.806
2.63661e+07	-1073	-13891	793	-130.906	-1694.7	96.746
2.63864e+07	-3115	-16623	1092	-380.03	-2028.01	133.224
2.64067e+07	-6513	-18536	1983	-794.586	-2261.39	241.926
2.6427e+07	-11543	-21213	2381	-1408.25	-2587.99	290.482
2.64473e+07	-14441	-17396	1675	-1761.8	-2122.31	204.35
2.64676e+07	-13250	-11316	1464	-1616.5	-1380.55	178.608
2.6488e+07	-10738	-6459	1542	-1310.04	-787.998	188.124
2.65083e+07	-8136	-2783	1504	-992.592	-339.526	183.488
2.65286e+07	-6187	-608	1047	-754.814	-74.176	127.734
2.65489e+07	-5239	253	483	-639.158	30.866	58.926
2.65693e+07	-5084	583	-125	-620.248	71.126	-15.25
2.65896e+07	-5101	1174	-471	-622.322	143.228	-57.462
2.66099e+07	-4585	1851	-693	-559.37	225.822	-84.546
2.66302e+07	-4255	2538	-759	-519.11	309.636	-92.598
2.66505e+07	-4459	2650	-667	-543.998	323.3	-81.374
2.66708e+07	-4940	1343	-195	-602.68	163.846	-23.79
2.66912e+07	-6312	-1208	813	-770.064	-147.376	99.186
2.67115e+07	-9458	-4533	1109	-1153.88	-553.026	135.298
2.67318e+07	-13041	-10411	-533	-1591	-1270.14	-65.026
2.67521e+07	-14110	-15484	-1487	-1721.42	-1889.05	-181.414
2.67724e+07	-11245	-16367	249	-1371.89	-1996.77	30.378
2.67928e+07	-9820	-17450	896	-1198.04	-2128.9	109.312
2.68131e+07	-8019	-17600	247	-978.318	-2147.2	30.134
2.68334e+07	-5708	-15955	-169	-696.376	-1946.51	-20.618
2.68537e+07	-4029	-14415	194	-491.538	-1758.63	23.668
2.6874e+07	-2836	-12745	1144	-345.992	-1554.89	139.568
2.68944e+07	-1509	-10583	1312	-184.098	-1291.13	160.064
2.69147e+07	408	-8489	1064	49.776	-1035.66	129.808
2.6935e+07	3458	-6860	1507	421.876	-836.92	183.854
2.69553e+07	7205	-5470	1318	879.01	-667.34	160.796
2.69757e+07	8374	-5417	1573	1021.63	-660.874	191.906
2.6996e+07	5684	-6768	1389	693.448	-825.696	169.458
2.70163e+07	3275	-6645	674	399.55	-810.69	82.228
2.70366e+07	2351	-6904	283	286.822	-842.288	34.526
2.70569e+07	696	-9559	419	84.912	-1166.2	51.118
2.70772e+07	-1287	-14137	907	-157.014	-1724.71	110.654
2.70976e+07	-3830	-19441	777	-467.26	-2371.8	94.794
2.71179e+07	-8851	-22490	120	-1079.82	-2743.78	14.64
2.71382e+07	-13054	-23561	-196	-1592.59	-2874.44	-23.912
2.71585e+07	-14107	-19075	61	-1721.05	-2327.15	7.442
2.71788e+07	-12906	-14172	187	-1574.53	-1728.98	22.814
2.71992e+07	-11414	-10615	-76	-1392.51	-1295.03	-9.272
2.72195e+07	-9825	-6531	-678	-1198.65	-796.782	-82.716
2.72398e+07	-8136	-2668	-1191	-992.592	-325.496	-145.302
2.72601e+07	-6703	606	-1916	-817.766	73.932	-233.752
2.72804e+07	-5821	3128	-2000	-710.162	381.616	-244
2.73007e+07	-5235	4579	-1437	-638.67	558.638	-175.314
2.73211e+07	-4986	5024	-1209	-608.292	612.928	-147.498
2.73414e+07	-5059	4221	-1641	-617.198	514.962	-200.202
2.73617e+07	-5327	3491	-1394	-649.894	425.902	-170.068
2.7382e+07	-5798	3357	-386	-707.356	409.554	-47.092
2.74023e+07	-7508	1860	-212	-915.976	226.92	-25.864
2.74227e+07	-10968	-2085	-717	-1338.1	-254.37	-87.474
2.7443e+07	-15046	-7832	-931	-1835.61	-955.504	-113.582
2.74633e+07	-16813	-17233	411	-2051.19	-2102.43	50.142
2.74836e+07	-12532	-21428	696	-1528.9	-2614.22	84.912
2.75039e+07	-9968	-18138	464	-1216.1	-2212.84	56.608
2.75242e+07	-8278	-16685	593	-1009.92	-2035.57	72.346
2.75446e+07	-5275	-16224	857	-643.55	-1979.33	104.554
2.75649e+07	-2821	-14406	1179	-344.162	-1757.53	143.838
2.75852e+07	-1302	-11797	1395	-158.844	-1439.23	170.19
2.76055e+07	601	-9875	1466	73.322	-1204.75	178.852
2.76258e+07	2624	-8290	1540	320.128	-1011.38	187.88
2.76462e+07	4989	-7622	1603	608.658	-929.884	195.566
2.76665e+07	7315	-7223	1585	892.43	-881.206	193.37
2.76868e+07	8033	-6073	1948	980.026	-740.906	237.656
2.77071e+07	6568	-5556	2560	801.296	-677.832	312.32
2.77274e+07	4341	-5919	2264	529.602	-722.118	276.208
2.77477e+07	3257	-6201	1657	397.354	-756.522	202.154
2.77681e+07	2401	-8745	2021	292.922	-1066.89	246.562
2.77884e+07	-184	-14389	3028	-22.448	-1755.46	369.416
2.78087e+07	-4338	-20550	2267	-529.236	-2507.1	276.574
2.7829e+07	-12975	-20874	-303	-1582.95	-2546.63	-36.966
2.78493e+07	-16893	-19319	2089	-2060.95	-2356.92	254.858
2.78696e+07	-15663	-14218	2481	-1910.89	-1734.6	302.682
2.789e+07	-14332	-9302	1070	-1748.5	-1134.84	130.54
2.79103e+07	-12436	-5770	11	-1517.19	-703.94	1.342
2.79306e+07	-9747	-3660	-588	-1189.13	-446.52	-71.736
2.79509e+07	-8038	-2036	-1136	-980.636	-248.392	-138.592
2.79712e+07	-6630	-753	-1209	-808.86	-91.866	-147.498
2.79916e+07	-5537	142	-1321	-675.514	17.324	-161.162
2.80119e+07	-4953	1316	-1834	-604.266	160.552	-223.748
2.80322e+07	-4246	2491	-2304	-518.012	303.902	-281.088
2.80525e+07	-3502	2753	-1805	-427.244	335.866	-220.21
2.80728e+07	-3959	2022	-698	-482.998	246.684	-85.156
2.80931e+07	-5807	468	407	-708.454	57.096	49.654
2.81135e+07	-9080	-1917	223	-1107.76	-233.874	27.206
2.81338e+07	-13564	-6774	324	-1654.81	-826.428	39.528
2.81541e+07	-15890	-13455	1223	-1938.58	-1641.51	149.206
2.81744e+07	-13392	-16097	2793	-1633.82	-1963.83	340.746
2.81947e+07	-11452	-18198	2476	-1397.14	-2220.16	302.072
2.82151e+07	-8894	-18241	2519	-1085.07	-2225.4	307.318
2.82354e+07	-6083	-16292	2891	-742.126	-1987.62	352.702
2.82557e+07	-3713	-14301	2738	-452.986	-1744.72	334.036
2.8276e+07	-2119	-11756	2681	-258.518	-1434.23	327.082
2.82963e+07	-1024	-8993	2915	-124.928	-1097.15	355.63
2.83167e+07	511	-7232	3047	62.342	-882.304	371.734
2.8337e+07	2374	-6522	2862	289.628	-795.684	349.164
2.83573e+07	4166	-5205	2669	508.252	-635.01	325.618
2.83776e+07	5350	-4273	2228	652.7	-521.306	271.816
2.83979e+07	5337	-5522	2491	651.114	-673.684	303.902
2.84182e+07	3552	-7162	2266	433.344	-873.764	276.452
2.84386e+07	2694	-7027	1863	328.668	-857.294	227.286
2.84589e+07	2354	-8130	1018	287.188	-991.86	124.196
2.84792e+07	998	-12948	1479	121.756	-1579.66	180.438
2.84995e+07	-1617	-18296	2369	-197.274	-2232.11	289.018
2.85198e+07	-7940	-22130	1118	-968.68	-2699.86	136.396
2.85402e+07	-16827	-22588	130	-2052.89	-2755.74	15.86
2.85605e+07	-16854	-15211	1073	-2056.19	-1855.74	130.906
2.85808e+07	-13954	-9820	1983	-1702.39	-1198.04	241.926
2.86011e+07	-13192	-6998	1332	-1609.42	-853.756	162.504
2.86214e+07	-11118	-3732	-193	-1356.4	-455.304	-23.546
2.86417e+07	-8135	-855	-156	-992.47	-104.31	-19.032
2.86621e+07	-6079	782	353	-741.638	95.404	43.066
2.86824e+07	-5069	1322	290	-618.418	161.284	35.38
2.87027e+07	-4926	1581	-575	-600.972	192.882	-70.15
2.8723e+07	-4827	2492	-1419	-588.894	304.024	-173.118
2.87433e+07	-4566	3436	-1627	-557.052	419.192	-198.494
2.87636e+07	-4581	3248	-1006	-558.882	396.256	-122.732
2.8784e+07	-5200	2082	-625	-634.4	254.004	-76.25
2.88043e+07	-6965	-62	-340	-849.73	-7.564	-41.48
2.88246e+07	-11330	-3770	18	-1382.26	-459.94	2.196
2.88449e+07	-15344	-10474	1001	-1871.97	-1277.83	122.122
2.88652e+07	-15532	-16486	652	-1894.9	-2011.29	79.544
2.88856e+07	-13182	-17108	-164	-1608.2	-2087.18	-20.008
2.89059e+07	-11937	-15810	-451	-1456.31	-1928.82	-55.022
2.89262e+07	-9721	-15377	-974	-1185.96	-1875.99	-118.828
2.89465e+07	-6391	-15205	-660	-779.702	-1855.01	-80.52
2.89668e+07	-3847	-13509	-127	-469.334	-1648.1	-15.494
2.89871e+07	-2155	-10642	267	-262.91	-1298.32	32.574
2.90075e+07	-730	-8349	354	-89.06	-1018.58	43.188
2.90278e+07	549	-6856	-25	66.978	-836.432	-3.05
2.90481e+07	2247	-5913	-29	274.134	-721.386	-3.538
2.90684e+07	4223	-5367	330	515.206	-654.774	40.26
2.90887e+07	5445	-5694	760	664.29	-694.668	92.72
2.9109e+07	4915	-6931	602	599.63	-845.582	73.444
2.91294e+07	2959	-8394	282	360.998	-1024.07	34.404
2.91497e+07	1408	-9469	310	171.776	-1155.22	37.82
2.917e+07	301	-13204	1218	36.722	-1610.89	148.596
2.91903e+07	-1335	-18812	1263	-162.87	-2295.06	154.086
2.92106e+07	-3609	-21227	1182	-440.298	-2589.69	144.204
2.9231e+07	-10104	-19533	13	-1232.69	-2383.03	1.586
2.92513e+07	-14057	-19099	2493	-1714.95	-2330.08	304.146
2.92716e+07	-13244	-15256	3769	-1615.77	-1861.23	459.818
2.92919e+07	-12636	-12498	3125	-1541.59	-1524.76	381.25
2.93122e+07	-12838	-9276	2175	-1566.24	-1131.67	265.35
2.93325e+07	-11193	-4752	1668	-1365.55	-579.744	203.496
2.93529e+07	-8887	-269	1518	-1084.21	-32.818	185.196
2.93732e+07	-7004	3548	1479	-854.488	432.856	180.438
2.93935e+07	-5968	5466	445	-728.096	666.852	54.29
2.94138e+07	-5512	5712	-1137	-672.464	696.864	-138.714
2.94341e+07	-5388	4984	-1778	-657.336	608.048	-216.916
2.94544e+07	-4984	2850	-1680	-608.048	347.7	-204.96
2.94748e+07	-4788	1807	-519	-584.136	220.454	-63.318
2.94951e+07	-5298	724	-20	-646.356	88.328	-2.44
2.95154e+07	-8059	-3179	-1294	-983.198	-387.838	-157.868
2.95357e+07	-12136	-10620	-2956	-1480.59	-1295.64	-360.632
2.9556e+07	-13339	-17582	-3959	-1627.36	-2145	-482.998
2.95763e+07	-11862	-18005	-3622	-1447.16	-2196.61	-441.884
2.95967e+07	-10360	-18620	-4661	-1263.92	-2271.64	-568.642
2.9617e+07	-8393	-19592	-4682	-1023.95	-2390.22	-571.204
2.96373e+07	-5249	-16471	-3011	-640.378	-2009.46	-367.342
2.96576e+07	-2973	-12983	-1489	-362.706	-1583.93	-181.658
2.96779e+07	-1555	-10687	-346	-189.71	-1303.81	-42.212
2.96982e+07	-843	-8790	230	-102.846	-1072.38	28.06
2.97186e+07	43	-7535	688	5.246	-919.27	83.936
2.97389e+07	1305	-6847	927	159.21	-835.334	113.094
2.97592e+07	3318	-6599	2049	404.796	-805.078	249.978
2.97795e+07	5826	-6622	2620	710.772	-807.884	319.64
2.97998e+07	7573	-6822	2259	923.906	-832.284	275.598
2.98202e+07	6649	-6860	1872	811.178	-836.92	228.384
2.98405e+07	4293	-6554	1466	523.746	-799.588	178.852
2.98608e+07	2429	-7064	1048	296.338	-861.808	127.856
2.98811e+07	1131	-9606	591	137.982	-1171.93	72.102
2.99014e+07	-60	-15501	273	-7.32	-1891.12	33.306
2.99217e+07	-2401	-21848	229	-292.922	-2665.46	27.938
2.99421e+07	-10580	-24355	-865	-1290.76	-2971.31	-105.53
2.99624e+07	-16457	-22055	-415	-2007.75	-2690.71	-50.63
2.99827e+07	-14481	-14490	1197	-1766.68	-1767.78	146.034
3.0003e+07	-11184	-8759	1925	-1364.45	-1068.6	234.85
3.00233e+07	-10286	-5079	1153	-1254.89	-619.638	140.666
3.00437e+07	-8724	-2456	796	-1064.33	-299.632	97.112
3.0064e+07	-7628	-491	638	-930.616	-59.902	77.836
3.00843e+07	-6880	2143	540	-839.36	261.446	65.88
3.01046e+07	-6227	4687	318	-759.694	571.814	38.796
3.01249e+07	-5855	5274	-602	-714.31	643.428	-73.444
3.01453e+07	-6239	5028	-2155	-761.158	613.416	-262.91
3.01656e+07	-6844	4104	-1689	-834.968	500.688	-206.058
3.01859e+07	-7935	900	357	-968.07	109.8	43.554
3.02062e+07	-10379	-4006	1328	-1266.24	-488.732	162.016
3.02265e+07	-13604	-9759	847	-1659.69	-1190.6	103.334
3.02468e+07	-14794	-14086	1373	-1804.87	-1718.49	167.506
3.02672e+07	-13257	-15689	2575	-1617.35	-1914.06	314.15
3.02875e+07	-11340	-14139	3671	-1383.48	-1724.96	447.862
3.03078e+07	-9864	-12639	3039	-1203.41	-1541.96	370.758
3.03281e+07	-7626	-13558	2218	-930.372	-1654.08	270.596
3.03484e+07	-5090	-13968	2393	-620.98	-1704.1	291.946
3.03688e+07	-3048	-12220	2974	-371.856	-1490.84	362.828
3.03891e+07	-1856	-10324	3345	-226.432	-1259.53	408.09
3.04094e+07	-930	-9143	2735	-113.46	-1115.45	333.67
3.04297e+07	137	-7855	2284	16.714	-958.31	278.648
3.04501e+07	1725	-6216	2319	210.45	-758.352	282.918
3.04704e+07	4819	-5090	2303	587.918	-620.98	280.966
3.04907e+07	7967	-4906	2250	971.974	-598.532	274.5
3.0511e+07	8269	-5564	2301	1008.82	-678.808	280.722
3.05313e+07	6043	-6001	1836	737.246	-732.122	223.992
3.05516e+07	4096	-6243	1095	499.712	-761.646	133.59
3.0572e+07	2713	-8088	801	330.986	-986.736	97.722
3.05923e+07	1311	-11486	1260	159.942	-1401.29	153.72
3.06126e+07	6	-16900	1454	0.732	-2061.8	177.388
3.06329e+07	-6609	-24612	1559	-806.298	-3002.66	190.198
3.06532e+07	-14360	-25745	927	-1751.92	-3140.89	113.094
3.06736e+07	-15647	-18868	2214	-1908.93	-2301.9	270.108
3.06939e+07	-13261	-13625	2770	-1617.84	-1662.25	337.94
3.07142e+07	-12657	-8954	1873	-1544.15	-1092.39	228.506
3.07345e+07	-11336	-4388	576	-1382.99	-535.336	70.272
3.07548e+07	-9417	-1007	-61	-1148.87	-122.854	-7.442
3.07752e+07	-7802	1108	34	-951.844	135.176	4.148
3.07955e+07	-6706	2512	129	-818.132	306.464	15.738
3.08158e+07	-5998	3134	-825	-731.756	382.348	-100.65
3.08361e+07	-5196	3663	-1558	-633.912	446.886	-190.076
3.08565e+07	-4202	3836	-1632	-512.644	467.992	-199.104
3.08768e+07	-3911	2763	-812	-477.142	337.086	-99.064
3.08971e+07	-5133	616	-1	-626.226	75.152	-0.122
3.09174e+07	-6602	-2167	1044	-805.444	-264.374	127.368
3.09377e+07	-9438	-6225	1293	-1151.44	-759.45	157.746
3.09581e+07	-12767	-11937	1415	-1557.57	-1456.31	172.63
3.09784e+07	-13403	-14921	3042	-1635.17	-1820.36	371.124
3.09987e+07	-11636	-13729	5967	-1419.59	-1674.94	727.974
3.1019e+07	-10260	-13682	6343	-1251.72	-1669.2	773.846
3.10393e+07	-7751	-14985	5644	-945.622	-1828.17	688.568
3.10597e+07	-4735	-13849	5651	-577.67	-1689.58	689.422
3.108e+07	-2674	-10303	5611	-326.228	-1256.97	684.542
3.11003e+07	-1478	-7780	4654	-180.316	-949.16	567.788
3.11206e+07	-119	-6336	3718	-14.518	-772.992	453.596
3.11409e+07	1264	-5159	3238	154.208	-629.398	395.036
3.11613e+07	2694	-5114	2902	328.668	-623.908	354.044
3.11816e+07	4635	-5662	2742	565.47	-690.764	334.524
3.12019e+07	5400	-4852	2577	658.8	-591.944	314.394
3.12222e+07	5320	-4008	2688	649.04	-488.976	327.936
3.12426e+07	4212	-4292	2643	513.864	-523.624	322.446
3.12629e+07	3062	-5841	2604	373.564	-712.602	317.688
3.12832e+07	2217	-9503	3135	270.474	-1159.37	382.47
3.13035e+07	-241	-15371	4999	-29.402	-1875.26	609.878
3.13238e+07	-8129	-22522	7455	-991.738	-2747.68	909.51
3.13442e+07	-12845	-23269	6299	-1567.09	-2838.82	768.478
3.13645e+07	-16221	-17755	5846	-1978.96	-2166.11	713.212
3.13848e+07	-15483	-13758	3715	-1888.93	-1678.48	453.23
3.14051e+07	-13189	-10013	1926	-1609.06	-1221.59	234.972
3.14254e+07	-11548	-6832	1327	-1408.86	-833.504	161.894
3.14458e+07	-9723	-3747	732	-1186.21	-457.134	89.304
3.14661e+07	-7300	-337	526	-890.6	-41.114	64.172
3.14864e+07	-5686	2491	333	-693.692	303.902	40.626
3.15067e+07	-5118	4461	-759	-624.396	544.242	-92.598
3.1527e+07	-5004	5097	-2094	-610.488	621.834	-255.468
3.15474e+07	-4440	5095	-2367	-541.68	621.59	-288.774
3.15677e+07	-4274	5104	-1925	-521.428	622.688	-234.85
3.1588e+07	-5478	4039	-1109	-668.316	492.758	-135.298
3.16083e+07	-8497	1734	29	-1036.63	211.548	3.538
3.16286e+07	-13440	-1970	1921	-1639.68	-240.34	234.362
3.1649e+07	-18427	-10255	3109	-2248.09	-1251.11	379.298
3.16693e+07	-17809	-15040	3769	-2172.7	-1834.88	459.818
3.16896e+07	-15661	-11657	5910	-1910.64	-1422.15	721.02
3.17099e+07	-13674	-10810	6842	-1668.23	-1318.82	834.724
3.17303e+07	-10188	-14443	5457	-1242.94	-1762.05	665.754
3.17506e+07	-6834	-17007	3855	-833.748	-2074.85	470.31
3.17709e+07	-4097	-15177	3462	-499.834	-1851.59	422.364
3.17912e+07	-1968	-11904	3487	-240.096	-1452.29	425.414
3.18115e+07	-612	-9473	3283	-74.664	-1155.71	400.526
3.18319e+07	716	-8780	2707	87.352	-1071.16	330.254
3.18522e+07	2599	-8350	2027	317.078	-1018.7	247.294
3.18725e+07	4966	-7264	1887	605.852	-886.208	230.214
3.18928e+07	6705	-6188	2141	818.01	-754.936	261.202
3.19131e+07	5802	-5129	2176	707.844	-625.738	265.472
3.19335e+07	3962	-4655	1798	483.364	-567.91	219.356
3.19538e+07	2813	-4927	1419	343.186	-601.094	173.118
3.19741e+07	1842	-6023	1633	224.724	-734.806	199.226
3.19944e+07	385	-9496	2121	46.97	-1158.51	258.762
3.20147e+07	-1516	-17619	2756	-184.952	-2149.52	336.232
3.20351e+07	-7050	-24771	3772	-860.1	-3022.06	460.184
3.20554e+07	-15112	-25051	3751	-1843.66	-3056.22	457.622
3.20757e+07	-17247	-20042	5141	-2104.13	-2445.12	627.202
3.2096e+07	-16514	-14970	5384	-2014.71	-1826.34	656.848
3.21163e+07	-15226	-11422	3221	-1857.57	-1393.48	392.962
3.21366e+07	-13503	-7379	1804	-1647.37	-900.238	220.088
3.2157e+07	-11469	-3951	1279	-1399.22	-482.022	156.038
3.21773e+07	-9202	-1078	1346	-1122.64	-131.516	164.212
3.21976e+07	-7206	1433	1172	-879.132	174.826	142.984
3.22179e+07	-5741	3692	442	-700.402	450.424	53.924
3.22382e+07	-4761	5147	-515	-580.842	627.934	-62.83
3.22586e+07	-3980	5522	-1019	-485.56	673.684	-124.318
3.22789e+07	-3890	4697	-1060	-474.58	573.034	-129.32
3.22992e+07	-4538	2685	-1155	-553.636	327.57	-140.91
3.23195e+07	-4766	1241	-1290	-581.452	151.402	-157.38
3.23398e+07	-5954	841	-1912	-726.388	102.602	-233.264
3.23601e+07	-9777	-846	-1685	-1192.79	-103.212	-205.57
3.23805e+07	-15272	-7013	-1300	-1863.18	-855.586	-158.6
3.24008e+07	-18935	-17752	-4012	-2310.07	-2165.74	-489.464
3.24211e+07	-16370	-24189	-5574	-1997.14	-2951.06	-680.028
3.24414e+07	-13057	-18127	-3850	-1592.95	-2211.49	-469.7
3.24617e+07	-10630	-13849	-2046	-1296.86	-1689.58	-249.612
3.2482e+07	-7122	-13891	-858	-868.884	-1694.7	-104.676
3.25024e+07	-4602	-12605	-864	-561.444	-1537.81	-105.408
3.25227e+07	-2578	-10442	-293	-314.516	-1273.92	-35.746
3.2543e+07	-868	-8800	651	-105.896	-1073.6	79.422
3.25633e+07	751	-7996	1182	91.622	-975.512	144.204
3.25836e+07	2178	-7556	1769	265.716	-921.832	215.818
3.2604e+07	3602	-6683	2346	439.444	-815.326	286.212
3.26243e+07	5075	-5426	2587	619.15	-661.972	315.614
3.26446e+07	5592	-4409	2514	682.224	-537.898	306.708
3.26649e+07	4655	-4151	2038	567.91	-506.422	248.636
3.26852e+07	3254	-4457	1636	396.988	-543.754	199.592
3.27055e+07	2470	-5478	491	301.34	-668.316	59.902
3.27259e+07	1494	-9021	56	182.268	-1100.56	6.832
3.27462e+07	-942	-17338	1123	-114.924	-2115.24	137.006
3.27665e+07	-4668	-25141	1235	-569.496	-3067.2	150.67
3.27868e+07	-16425	-23144	-1695	-2003.85	-2823.57	-206.79
3.28071e+07	-18269	-21546	1129	-2228.82	-2628.61	137.738
3.28275e+07	-13588	-13771	2070	-1657.74	-1680.06	252.54
3.28478e+07	-12565	-8155	1752	-1532.93	-994.91	213.744
3.28681e+07	-11595	-5556	241	-1414.59	-677.832	29.402
3.28884e+07	-9296	-4037	115	-1134.11	-492.514	14.03
3.29087e+07	-7656	-1988	486	-934.032	-242.536	59.292
3.2929e+07	-6481	751	1087	-790.682	91.622	132.614
3.29494e+07	-5357	3581	924	-653.554	436.882	112.728
3.29697e+07	-4604	5298	424	-561.688	646.356	51.728
3.299e+07	-4432	5666	-430	-540.704	691.252	-52.46
3.30103e+07	-4895	4751	-925	-597.19	579.622	-112.85
3.30306e+07	-5441	3226	-914	-663.802	393.572	-111.508
3.3051e+07	-6101	2169	-456	-744.322	264.618	-55.632
3.30713e+07	-8183	877	-684	-998.326	106.994	-83.448
3.30916e+07	-13382	-3161	-899	-1632.6	-385.642	-109.678
3.31119e+07	-18370	-13579	-774	-2241.14	-1656.64	-94.428
3.31322e+07	-16476	-21075	940	-2010.07	-2571.15	114.68
3.31525e+07	-12829	-19799	610	-1565.14	-2415.48	74.42
3.31729e+07	-10998	-16340	756	-1341.76	-1993.48	92.232
3.31932e+07	-8205	-13786	1378	-1001.01	-1681.89	168.116
3.32135e+07	-5666	-13370	1117	-691.252	-1631.14	136.274
3.32338e+07	-3826	-11649	846	-466.772	-1421.18	103.212
3.32541e+07	-2411	-9246	995	-294.142	-1128.01	121.39
3.32745e+07	-843	-7988	1313	-102.846	-974.536	160.186
3.32948e+07	930	-7182	1614	113.46	-876.204	196.908
3.33151e+07	2397	-6503	1498	292.434	-793.366	182.756
3.33354e+07	3676	-6283	1104	448.472	-766.526	134.688
3.33557e+07	4736	-5714	1228	577.792	-697.108	149.816
3.33761e+07	5036	-5221	1441	614.392	-636.962	175.802
3.33964e+07	4491	-5151	1630	547.902	-628.422	198.86
3.34167e+07	3211	-5527	1256	391.742	-674.294	153.232
3.3437e+07	2098	-6857	660	255.956	-836.554	80.52
3.34573e+07	494	-11526	1107	60.268	-1406.17	135.054
3.34777e+07	-2120	-17978	1458	-258.64	-2193.32	177.876
3.3498e+07	-7325	-21964	730	-893.65	-2679.61	89.06
3.35183e+07	-17406	-24391	-124	-2123.53	-2975.7	-15.128
3.35386e+07	-18051	-21613	1822	-2202.22	-2636.79	222.284
3.35589e+07	-14212	-13109	3068	-1733.86	-1599.3	374.296
3.35793e+07	-13459	-7331	2234	-1642	-894.382	272.548
3.35996e+07	-11883	-4952	949	-1449.73	-604.144	115.778
3.36199e+07	-9601	-3784	982	-1171.32	-461.648	119.804
3.36402e+07	-8496	-1148	1485	-1036.51	-140.056	181.17
3.36605e+07	-7237	2010	1241	-882.914	245.22	151.402
3.36809e+07	-6267	4873	138	-764.574	594.506	16.836
3.37012e+07	-5395	6626	-574	-658.19	808.372	-70.028
3.37215e+07	-4391	6880	-1103	-535.702	839.36	-134.566
3.37418e+07	-3957	5490	-1388	-482.754	669.78	-169.336
3.37621e+07	-4419	3544	-1143	-539.118	432.368	-139.446
3.37824e+07	-5755	2168	-583	-702.11	264.496	-71.126
3.38028e+07	-10099	182	-448	-1232.08	22.204	-54.656
3.38231e+07	-16078	-7254	-421	-1961.52	-884.988	-51.362
3.38434e+07	-18892	-19167	-2584	-2304.82	-2338.37	-315.248
3.38637e+07	-15195	-17962	-119	-1853.79	-2191.36	-14.518
3.3884e+07	-13047	-16718	933	-1591.73	-2039.6	113.826
3.39044e+07	-9956	-15745	580	-1214.63	-1920.89	70.76
3.39247e+07	-6513	-13962	383	-794.586	-1703.36	46.726
3.3945e+07	-4464	-13423	-69	-544.608	-1637.61	-8.418
3.39653e+07	-3032	-11947	-132	-369.904	-1457.53	-16.104
3.39856e+07	-1731	-9553	435	-211.182	-1165.47	53.07
3.4006e+07	-253	-7561	1020	-30.866	-922.442	124.44
3.40263e+07	1328	-6449	1356	162.016	-786.778	165.432
3.40466e+07	3295	-5998	1216	401.99	-731.756	148.352
3.40669e+07	5341	-5812	858	651.602	-709.064	104.676
3.40872e+07	6117	-6507	1001	746.274	-793.854	122.122
3.41076e+07	5036	-7416	1434	614.392	-904.752	174.948
3.41279e+07	3681	-7047	1301	449.082	-859.734	158.722
3.41482e+07	2591	-7560	335	316.102	-922.32	40.87
3.41685e+07	1469	-10988	-492	179.218	-1340.54	-60.024
3.41888e+07	-629	-16068	271	-76.738	-1960.3	33.062
3.42091e+07	-8361	-20753	238	-1020.04	-2531.87	29.036
3.42295e+07	-16699	-25448	-1380	-2037.28	-3104.66	-168.36
3.42498e+07	-18496	-19939	-916	-2256.51	-2432.56	-111.752
3.42701e+07	-16398	-13991	317	-2000.56	-1706.9	38.674
3.42904e+07	-14657	-9007	453	-1788.15	-1098.85	55.266
3.43107e+07	-12411	-4775	-554	-1514.14	-582.55	-67.588
3.4331e+07	-9918	-1832	-288	-1210	-223.504	-35.136
3.43514e+07	-7823	937	310	-954.406	114.314	37.82
3.43717e+07	-6393	3336	251	-779.946	406.992	30.622
3.4392e+07	-5924	4453	-289	-722.728	543.266	-35.258
3.44123e+07	-5758	5087	-984	-702.476	620.614	-120.048
3.44326e+07	-5167	5635	-996	-630.374	687.47	-121.512
3.4453e+07	-4922	5036	-493	-600.484	614.392	-60.146
3.44733e+07	-5890	3069	105	-718.58	374.418	12.81
3.44936e+07	-7900	491	355	-963.8	59.902	43.31
3.45139e+07	-11064	-3296	-254	-1349.81	-402.112	-30.988
3.45342e+07	-15306	-10964	-1420	-1867.33	-1337.61	-173.24
3.45546e+07	-16245	-16692	-1139	-1981.89	-2036.42	-138.958
3.45749e+07	-13579	-13776	686	-1656.64	-1680.67	83.692
3.45952e+07	-12156	-12480	2044	-1483.03	-1522.56	249.368
3.46155e+07	-9462	-11999	2375	-1154.36	-1463.88	289.75
3.46358e+07	-7182	-12751	1134	-876.204	-1555.62	138.348
3.46561e+07	-5666	-13361	49	-691.252	-1630.04	5.978
3.46765e+07	-4215	-11813	-234	-514.23	-1441.19	-28.548
3.46968e+07	-2633	-9916	285	-321.226	-1209.75	34.77
3.47171e+07	-543	-8645	863	-66.246	-1054.69	105.286
3.47374e+07	1614	-7349	1477	196.908	-896.578	180.194
3.47577e+07	3802	-6622	1512	463.844	-807.884	184.464
3.47781e+07	6070	-7174	1288	740.54	-875.228	157.136
3.47984e+07	6347	-8353	1356	774.334	-1019.07	165.432
3.48187e+07	4426	-8730	1177	539.972	-1065.06	143.594
3.4839e+07	2129	-8486	488	259.738	-1035.29	59.536
3.48593e+07	50	-9503	-351	6.1	-1159.37	-42.822
3.48796e+07	-2356	-12481	152	-287.432	-1522.68	18.544
3.49e+07	-4568	-15131	779	-557.296	-1845.98	95.038
3.49203e+07	-8026	-17371	1051	-979.172	-2119.26	128.222
3.49406e+07	-12749	-22181	667	-1555.38	-2706.08	81.374
3.49609e+07	-16663	-20853	199	-2032.89	-2544.07	24.278
3.49812e+07	-15760	-13534	659	-1922.72	-1651.15	80.398
3.50016e+07	-14156	-7885	912	-1727.03	-961.97	111.264
3.50219e+07	-12110	-3432	16	-1477.42	-418.704	1.952
3.50422e+07	-9484	66	-76	-1157.05	8.052	-9.272
3.50625e+07	-7530	1750	-44	-918.66	213.5	-5.368
3.50828e+07	-6509	2077	-578	-794.098	253.394	-70.516
3.51032e+07	-5939	2284	-1297	-724.558	278.648	-158.234
3.51235e+07	-5247	2873	-1355	-640.134	350.506	-165.31
3.51438e+07	-4539	2989	-1128	-553.758	364.658	-137.616
3.51641e+07	-4781	2601	-574	-583.282	317.322	-70.028
3.51844e+07	-5812	1593	-381	-709.064	194.346	-46.482
3.52048e+07	-7345	850	-431	-896.09	103.7	-52.582
3.52251e+07	-10659	-596	-939	-1300.4	-72.712	-114.558
3.52454e+07	-13797	-6194	-1471	-1683.23	-755.668	-179.462
3.52657e+07	-15196	-13333	-2298	-1853.91	-1626.63	-280.356
3.5286e+07	-15551	-15686	-2456	-1897.22	-1913.69	-299.632
3.53063e+07	-13530	-16753	-510	-1650.66	-2043.87	-62.22
3.53267e+07	-9991	-16811	141	-1218.9	-2050.94	17.202
3.5347e+07	-7099	-14861	-584	-866.078	-1813.04	-71.248
3.53673e+07	-4994	-12650	-878	-609.268	-1543.3	-107.116
3.53876e+07	-3374	-10692	-465	-411.628	-1304.42	-56.73
3.54079e+07	-1913	-9051	-11	-233.386	-1104.22	-1.342
3.54282e+07	-411	-7590	87	-50.142	-925.98	10.614
3.54486e+07	1247	-6412	180	152.134	-782.264	21.96
3.54689e+07	3275	-5924	659	399.55	-722.728	80.398
3.54892e+07	4879	-5750	1079	595.238	-701.5	131.638
3.55095e+07	5402	-6147	928	659.044	-749.934	113.216
3.55299e+07	4752	-6708	577	579.744	-818.376	70.394
3.55502e+07	3477	-6686	197	424.194	-815.692	24.034
3.55705e+07	1885	-7382	143	229.97	-900.604	17.446
3.55908e+07	-301	-9710	397	-36.722	-1184.62	48.434
3.56111e+07	-3065	-13335	1218	-373.93	-1626.87	148.596
3.56314e+07	-6083	-15981	1650	-742.126	-1949.68	201.3
3.56518e+07	-10198	-18442	2086	-1244.16	-2249.92	254.492
3.56721e+07	-14022	-21180	2242	-1710.68	-2583.96	273.524
3.56924e+07	-14545	-15603	1970	-1774.49	-1903.57	240.34
3.57127e+07	-13037	-9253	2225	-1590.51	-1128.87	271.45
3.5733e+07	-10132	-6482	2408	-1236.1	-790.804	293.776
3.57534e+07	-8089	-5580	1403	-986.858	-680.76	171.166
3.57737e+07	-7042	-4577	490	-859.124	-558.394	59.78
3.5794e+07	-5787	-3058	313	-706.014	-373.076	38.186
3.58143e+07	-4910	-1641	-122	-599.02	-200.202	-14.884
3.58346e+07	-4497	-227	-416	-548.634	-27.694	-50.752
3.5855e+07	-4110	1172	-689	-501.42	142.984	-84.058
3.58753e+07	-3877	2318	-1428	-472.994	282.796	-174.216
3.58956e+07	-4148	3242	-1823	-506.056	395.524	-222.406
3.59159e+07	-4323	3158	-1536	-527.406	385.276	-187.392
3.59362e+07	-4823	1719	-1410	-588.406	209.718	-172.02
3.59566e+07	-6881	99	-1193	-839.482	12.078	-145.546
3.59769e+07	-9409	-2644	-168	-1147.9	-322.568	-20.496
3.59972e+07	-13294	-7861	-618	-1621.87	-959.042	-75.396
3.60175e+07	-16472	-14529	-1039	-2009.58	-1772.54	-126.758
3.60378e+07	-13824	-17719	1042	-1686.53	-2161.72	127.124
3.60582e+07	-12165	-15406	2289	-1484.13	-1879.53	279.258
3.60785e+07	-10887	-12741	2165	-1328.21	-1554.4	264.13
3.60988e+07	-8999	-13256	994	-1097.88	-1617.23	121.268
3.61191e+07	-6863	-13476	1200	-837.286	-1644.07	146.4
3.61394e+07	-4609	-11873	1724	-562.298	-1448.51	210.328
3.61597e+07	-2584	-9899	1704	-315.248	-1207.68	207.888
3.61801e+07	-805	-8705	1544	-98.21	-1062.01	188.368
3.62004e+07	802	-8032	1462	97.844	-979.904	178.364
3.62207e+07	2879	-7459	2048	351.238	-909.998	249.856
3.6241e+07	4712	-7203	2477	574.864	-878.766	302.194
3.62613e+07	4920	-7397	2191	600.24	-902.434	267.302
3.62817e+07	3371	-7319	1362	411.262	-892.918	166.164
3.6302e+07	2120	-6520	705	258.64	-795.44	86.01
3.63223e+07	1175	-8074	381	143.35	-985.028	46.482
3.63426e+07	-598	-11961	881	-72.956	-1459.24	107.482
3.63629e+07	-4075	-15699	1692	-497.15	-1915.28	206.424
3.63833e+07	-11977	-19811	849	-1461.19	-2416.94	103.578
3.64036e+07	-17675	-22185	489	-2156.35	-2706.57	59.658
3.64239e+07	-17498	-15053	852	-2134.76	-1836.47	103.944
3.64442e+07	-14594	-8125	1398	-1780.47	-991.25	170.556
3.64645e+07	-12169	-2865	2019	-1484.62	-349.53	246.318
3.64848e+07	-9067	-2047	1686	-1106.17	-249.734	205.692
3.65052e+07	-7583	-2869	1141	-925.126	-350.018	139.202
3.65255e+07	-7097	-1466	395	-865.834	-178.852	48.19
3.65458e+07	-6420	977	-531	-783.24	119.194	-64.782
3.65661e+07	-5749	3235	-1035	-701.378	394.67	-126.27
3.65864e+07	-5281	4555	-1011	-644.282	555.71	-123.342
3.66067e+07	-4937	4577	-990	-602.314	558.394	-120.78
3.66271e+07	-4900	3272	-1867	-597.8	399.184	-227.774
3.66474e+07	-5248	2065	-2010	-640.256	251.93	-245.22
3.66677e+07	-6353	887	-1272	-775.066	108.214	-155.184
3.6688e+07	-9193	-1622	-204	-1121.55	-197.884	-24.888
3.67083e+07	-13181	-7055	589	-1608.08	-860.71	71.858
3.67286e+07	-16071	-14503	1052	-1960.66	-1769.37	128.344
3.6749e+07	-15263	-17199	1997	-1862.09	-2098.28	243.634
3.67693e+07	-13847	-15587	2298	-1689.33	-1901.61	280.356
3.67896e+07	-12034	-12683	3545	-1468.15	-1547.33	432.49
3.68099e+07	-9311	-12483	3586	-1135.94	-1522.93	437.492
3.68302e+07	-6712	-12440	2659	-818.864	-1517.68	324.398
3.68505e+07	-4650	-10588	2016	-567.3	-1291.74	245.952
3.68709e+07	-2870	-8404	1618	-350.14	-1025.29	197.396
3.68912e+07	-1219	-6757	1656	-148.718	-824.354	202.032
3.69115e+07	-15	-5855	1777	-1.83	-714.31	216.794
3.69318e+07	1404	-5325	1755	171.288	-649.65	214.11
3.69521e+07	2917	-4683	1527	355.874	-571.326	186.294
3.69724e+07	3944	-4984	1253	481.168	-608.048	152.866
3.69928e+07	4096	-5929	1188	499.712	-723.338	144.936
3.70131e+07	3323	-6757	1443	405.406	-824.354	176.046
3.70334e+07	2262	-7228	1324	275.964	-881.816	161.528
3.70537e+07	1451	-8584	812	177.022	-1047.25	99.064
3.7074e+07	-128	-13413	524	-15.616	-1636.39	63.928
3.70944e+07	-3276	-19904	1797	-399.672	-2428.29	219.234
3.71147e+07	-11152	-22352	2245	-1360.54	-2726.94	273.89
3.7135e+07	-16397	-21822	3308	-2000.43	-2662.28	403.576
3.71553e+07	-17106	-17159	3665	-2086.93	-2093.4	447.13
3.71756e+07	-16343	-12050	3253	-1993.85	-1470.1	396.866
3.71959e+07	-15016	-7658	2001	-1831.95	-934.276	244.122
3.72162e+07	-12598	-4818	1386	-1536.96	-587.796	169.092
3.72366e+07	-9994	-2123	1804	-1219.27	-259.006	220.088
3.72569e+07	-7994	263	2188	-975.268	32.086	266.936
3.72772e+07	-6242	1405	1120	-761.524	171.41	136.64
3.72975e+07	-5061	2754	-158	-617.442	335.988	-19.276
3.73178e+07	-4270	4243	-809	-520.94	517.646	-98.698
3.73381e+07	-3838	4695	-917	-468.236	572.79	-111.874
3.73585e+07	-3923	3685	-1325	-478.606	449.57	-161.65
3.73788e+07	-4165	2378	-1494	-508.13	290.116	-182.268
3.73991e+07	-4660	2167	-983	-568.52	264.374	-119.926
3.74194e+07	-6207	1900	-577	-757.254	231.8	-70.394
3.74397e+07	-10503	-131	-1181	-1281.37	-15.982	-144.082
3.746e+07	-16688	-6638	-36	-2035.94	-809.836	-4.392
3.74804e+07	-19858	-16480	-1158	-2422.68	-2010.56	-141.276
3.75007e+07	-16674	-19807	-1149	-2034.23	-2416.45	-140.178
3.7521e+07	-13673	-17809	272	-1668.11	-2172.7	33.184
3.75413e+07	-10722	-14734	1983	-1308.08	-1797.55	241.926
3.75616e+07	-7648	-13137	2111	-933.056	-1602.71	257.542
3.7582e+07	-5271	-12670	1239	-643.062	-1545.74	151.158
3.76023e+07	-3491	-11233	1305	-425.902	-1370.43	159.21
3.76226e+07	-1918	-9668	1773	-233.996	-1179.5	216.306
3.76429e+07	-887	-8256	2361	-108.214	-1007.23	288.042
3.76632e+07	332	-7234	2663	40.504	-882.548	324.886
3.76836e+07	2244	-6733	2492	273.768	-821.426	304.024
3.77039e+07	5145	-6199	2230	627.69	-756.278	272.06
3.77242e+07	7946	-6453	2019	969.412	-787.266	246.318
3.77445e+07	7458	-7001	1894	909.876	-854.122	231.068
3.77648e+07	4463	-7163	1931	544.486	-873.886	235.582
3.77851e+07	2546	-7817	979	310.612	-953.674	119.438
3.78055e+07	1655	-9845	7	201.91	-1201.09	0.854
3.78258e+07	478	-13902	2617	58.316	-1696.04	319.274
3.78461e+07	-2133	-20180	3822	-260.226	-2461.96	466.284
3.78664e+07	-9731	-25181	1486	-1187.18	-3072.08	181.292
3.78867e+07	-15427	-23983	1765	-1882.09	-2925.93	215.33
3.79071e+07	-14517	-17329	2671	-1771.07	-2114.14	325.862
3.79274e+07	-12397	-12293	3768	-1512.43	-1499.75	459.696
3.79477e+07	-12512	-8513	2926	-1526.46	-1038.59	356.972
3.7968e+07	-10516	-5009	2158	-1282.95	-611.098	263.276
3.79883e+07	-8283	-2485	1813	-1010.53	-303.17	221.186
3.80086e+07	-7425	-1235	1501	-905.85	-150.67	183.122
3.8029e+07	-6869	-755	918	-838.018	-92.11	111.996
3.80493e+07	-6114	-367	766	-745.908	-44.774	93.452
3.80696e+07	-5759	177	1029	-702.598	21.594	125.538
3.80899e+07	-5527	1009	1030	-674.294	123.098	125.66
3.81102e+07	-5249	1546	381	-640.378	188.612	46.482
3.81305e+07	-4984	1795	304	-608.048	218.99	37.088
3.81509e+07	-5406	1354	1286	-659.532	165.188	156.892
3.81712e+07	-6303	-1063	1434	-768.966	-129.686	174.948
3.81915e+07	-7932	-4170	420	-967.704	-508.74	51.24
3.82118e+07	-10976	-9241	-1564	-1339.07	-1127.4	-190.808
3.82321e+07	-13373	-18363	-749	-1631.51	-2240.29	-91.378
3.82525e+07	-9875	-22544	10	-1204.75	-2750.37	1.22
3.82728e+07	-6355	-18713	572	-775.31	-2282.99	69.784
3.82931e+07	-4203	-14762	442	-512.766	-1800.96	53.924
3.83134e+07	-2214	-14752	-627	-270.108	-1799.74	-76.494
3.83337e+07	-641	-14005	-736	-78.202	-1708.61	-89.792
3.8354e+07	381	-11181	-312	46.482	-1364.08	-38.064
3.83744e+07	1248	-8578	479	152.256	-1046.52	58.438
3.83947e+07	2007	-6784	1072	244.854	-827.648	130.784
3.8415e+07	2797	-5261	885	341.234	-641.842	107.97
3.84353e+07	4025	-3837	535	491.05	-468.114	65.27
3.84556e+07	5398	-3468	494	658.556	-423.096	60.268
3.8476e+07	5598	-4753	979	682.956	-579.866	119.438
3.84963e+07	4420	-5735	915	539.24	-699.67	111.63
3.85166e+07	3877	-6314	601	472.994	-770.308	73.322
3.85369e+07	4614	-8812	1114	562.908	-1075.06	135.908
3.85572e+07	5787	-12371	1311	706.014	-1509.26	159.942
3.85775e+07	5227	-15616	360	637.694	-1905.15	43.92
3.85978e+07	2163	-22338	596	263.886	-2725.24	72.712
3.86182e+07	-3281	-31786	580	-400.282	-3877.89	70.76
3.86385e+07	-13210	-27146	-308	-1611.62	-3311.81	-37.576
3.86588e+07	-13597	-21168	3028	-1658.83	-2582.5	369.416
3.86791e+07	-8958	-11738	2270	-1092.88	-1432.04	276.94
3.86994e+07	-8138	-6970	1103	-992.836	-850.34	134.566
3.87198e+07	-7932	-5521	278	-967.704	-673.562	33.916
3.87401e+07	-6739	-3735	323	-822.158	-455.67	39.406
3.87604e+07	-5779	-1646	320	-705.038	-200.812	39.04
3.87807e+07	-5161	-47	-593	-629.642	-5.734	-72.346
3.8801e+07	-5034	1167	-1388	-614.148	142.374	-169.336
3.88213e+07	-5383	2049	-1650	-656.726	249.978	-201.3
3.88416e+07	-5489	2289	-1448	-669.658	279.258	-176.656
3.8862e+07	-5097	2053	-496	-621.834	250.466	-60.512
3.88823e+07	-4309	1745	812	-525.698	212.89	99.064
3.89026e+07	-4249	1195	1856	-518.378	145.79	226.432
3.89229e+07	-7362	-2252	1107	-898.164	-274.744	135.054
3.89432e+07	-12250	-12196	-121	-1494.5	-1487.91	-14.762
3.89636e+07	-12759	-20026	203	-1556.6	-2443.17	24.766
3.89839e+07	-8769	-17733	3725	-1069.82	-2163.43	454.45
3.90042e+07	-6578	-17761	4580	-802.516	-2166.84	558.76
3.90245e+07	-4544	-18283	3172	-554.368	-2230.53	386.984
3.90448e+07	-1850	-17684	1789	-225.7	-2157.45	218.258
3.90651e+07	665	-15775	1622	81.13	-1924.55	197.884
3.90855e+07	3002	-12434	2552	366.244	-1516.95	311.344
3.91058e+07	3954	-9055	2858	482.388	-1104.71	348.676
3.91261e+07	3462	-6493	2423	422.364	-792.146	295.606
3.91464e+07	3033	-4942	1961	370.026	-602.924	239.242
3.91667e+07	3511	-4005	1415	428.342	-488.61	172.63
3.91871e+07	4574	-3440	868	558.028	-419.68	105.896
3.92074e+07	5327	-3334	803	649.894	-406.748	97.966
3.92277e+07	5324	-3296	789	649.528	-402.112	96.258
3.9248e+07	4931	-3714	398	601.582	-453.108	48.556
3.92683e+07	4704	-5003	-676	573.888	-610.366	-82.472
3.92886e+07	5630	-8116	-1147	686.86	-990.152	-139.934
3.9309e+07	6557	-14619	-427	799.954	-1783.52	-52.094
3.93293e+07	4339	-23178	-856	529.358	-2827.72	-104.432
3.93496e+07	-826	-27670	-1415	-100.772	-3375.74	-172.63
3.93699e+07	-7843	-24664	-857	-956.846	-3009.01	-104.554
3.93902e+07	-10556	-21906	2434	-1287.83	-2672.53	296.948
3.94106e+07	-9806	-15283	2795	-1196.33	-1864.53	340.99
3.94309e+07	-8104	-9697	1838	-988.688	-1183.03	224.236
3.94512e+07	-7460	-6276	1145	-910.12	-765.672	139.69
3.94715e+07	-6643	-3810	1214	-810.446	-464.82	148.108
3.94918e+07	-6296	-1964	1126	-768.112	-239.608	137.372
3.95122e+07	-6752	-301	608	-823.744	-36.722	74.176
3.95325e+07	-7198	1269	-19	-878.156	154.818	-2.318
3.95528e+07	-6621	3106	-346	-807.762	378.932	-42.212
3.95731e+07	-5804	4166	-999	-708.088	508.252	-121.878
3.95934e+07	-5524	3928	-963	-673.928	479.216	-117.486
3.96137e+07	-5532	2249	194	-674.904	274.378	23.668
3.96341e+07	-5738	-340	1299	-700.036	-41.48	158.478
3.96544e+07	-7657	-3576	1267	-934.154	-436.272	154.574
3.96747e+07	-12019	-11155	-1132	-1466.32	-1360.91	-138.104
3.9695e+07	-15866	-21391	-2504	-1935.65	-2609.7	-305.488
3.97153e+07	-13550	-22823	127	-1653.1	-2784.41	15.494
3.97357e+07	-11005	-20490	972	-1342.61	-2499.78	118.584
3.9756e+07	-8876	-19101	-512	-1082.87	-2330.32	-62.464
3.97763e+07	-5573	-17674	-646	-679.906	-2156.23	-78.812
3.97966e+07	-2918	-15697	-495	-355.996	-1915.03	-60.39
3.98169e+07	-1121	-12931	-310	-136.762	-1577.58	-37.82
3.98372e+07	607	-10265	152	74.054	-1252.33	18.544
3.98576e+07	2262	-8040	765	275.964	-980.88	93.33
3.98779e+07	3776	-6280	817	460.672	-766.16	99.674
3.98982e+07	5221	-4777	1206	636.962	-582.794	147.132
3.99185e+07	6285	-4095	1815	766.77	-499.59	221.43
3.99388e+07	6335	-4497	1992	772.87	-548.634	243.024
3.99592e+07	5381	-5160	2049	656.482	-629.52	249.978
3.99795e+07	4515	-5087	1685	550.83	-620.614	205.57
3.99998e+07	3828	-5741	660	467.016	-700.402	80.52
4.00201e+07	3435	-8565	-343	419.07	-1044.93	-41.846
4.00404e+07	3084	-13991	-530	376.248	-1706.9	-64.66
4.00607e+07	1242	-21399	465	151.524	-2610.68	56.73
4.00811e+07	-4881	-29308	-77	-595.482	-3575.58	-9.394
4.01014e+07	-11292	-30114	-768	-1377.62	-3673.91	-93.696
4.01217e+07	-14158	-22991	-134	-1727.28	-2804.9	-16.348
4.0142e+07	-13493	-15773	793	-1646.15	-1924.31	96.746
4.01623e+07	-10905	-8098	810	-1330.41	-987.956	98.82
4.01827e+07	-8747	-2327	805	-1067.13	-283.894	98.21
4.0203e+07	-6482	264	1873	-790.804	32.208	228.506
4.02233e+07	-5888	-16	1587	-718.336	-1.952	193.614
4.02436e+07	-6319	133	325	-770.918	16.226	39.65
4.02639e+07	-5937	1948	-444	-724.314	237.656	-54.168
4.02842e+07	-5496	3493	-1118	-670.512	426.146	-136.396
4.03046e+07	-5441	3791	-314	-663.802	462.502	-38.308
4.03249e+07	-5961	1486	243	-727.242	181.292	29.646
4.03452e+07	-5633	-1611	289	-687.226	-196.542	35.258
4.03655e+07	-6073	-3597	1279	-740.906	-438.834	156.038
4.03858e+07	-8051	-6472	1636	-982.222	-789.584	199.592
4.04061e+07	-9739	-10804	1274	-1188.16	-1318.09	155.428
4.04265e+07	-11741	-14131	859	-1432.4	-1723.98	104.798
4.04468e+07	-11425	-17758	989	-1393.85	-2166.48	120.658
4.04671e+07	-8532	-19467	612	-1040.9	-2374.97	74.664
4.04874e+07	-5677	-18134	1222	-692.594	-2212.35	149.084
4.05077e+07	-3494	-15487	1811	-426.268	-1889.41	220.942
4.05281e+07	-1889	-12897	1750	-230.458	-1573.43	213.5
4.05484e+07	-584	-10493	1223	-71.248	-1280.15	149.206
4.05687e+07	-11	-8369	566	-1.342	-1021.02	69.052
4.0589e+07	996	-6787	228	121.512	-828.014	27.816
4.06093e+07	2998	-5727	-124	365.756	-698.694	-15.128
4.06296e+07	5903	-5624	-6	720.166	-686.128	-0.732
4.065e+07	8005	-6004	681	976.61	-732.488	83.082
4.06703e+07	6799	-6484	766	829.478	-791.048	93.452
4.06906e+07	4386	-6579	268	535.092	-802.638	32.696
4.07109e+07	3150	-7001	-479	384.3	-854.122	-58.438
4.07312e+07	2875	-9731	-765	350.75	-1187.18	-93.33
4.07515e+07	1668	-15388	-89	203.496	-1877.34	-10.858
4.07719e+07	-1065	-19543	582	-129.93	-2384.25	71.004
4.07922e+07	-4783	-21466	1089	-583.526	-2618.85	132.858
4.08125e+07	-8561	-24328	1960	-1044.44	-2968.02	239.12
4.08328e+07	-11172	-19510	2329	-1362.98	-2380.22	284.138
4.08531e+07	-11689	-12999	2377	-1426.06	-1585.88	289.994
4.08734e+07	-10553	-8331	2157	-1287.47	-1016.38	263.154
4.08938e+07	-9144	-4154	1584	-1115.57	-506.788	193.248
4.09141e+07	-7782	-1490	735	-949.404	-181.78	89.67
4.09344e+07	-7121	12	-356	-868.762	1.464	-43.432
4.09547e+07	-7003	749	-1144	-854.366	91.378	-139.568
4.0975e+07	-6607	1060	-1239	-806.054	129.32	-151.158
4.09953e+07	-5758	1114	-1249	-702.476	135.908	-152.378
4.10156e+07	-5031	1116	-1281	-613.782	136.152	-156.282
4.1036e+07	-4610	881	-874	-562.42	107.482	-106.628
4.10563e+07	-4297	288	200	-524.234	35.136	24.4
4.10766e+07	-4592	-323	1108	-560.224	-39.406	135.176
4.10969e+07	-7222	-3204	581	-881.084	-390.888	70.882
4.11172e+07	-10593	-9873	-108	-1292.35	-1204.51	-13.176
4.11375e+07	-12538	-13344	-31	-1529.64	-1627.97	-3.782
4.11579e+07	-12203	-12587	3010	-1488.77	-1535.61	367.22
4.11782e+07	-11918	-16539	2219	-1454	-2017.76	270.718
4.11985e+07	-9590	-18776	428	-1169.98	-2290.67	52.216
4.12188e+07	-6352	-16943	572	-774.944	-2067.05	69.784
4.12391e+07	-3647	-15085	1138	-444.934	-1840.37	138.836
4.12594e+07	-1926	-12853	1142	-234.972	-1568.07	139.324
4.12798e+07	-806	-10784	755	-98.332	-1315.65	92.11
4.13001e+07	559	-9402	853	68.198	-1147.04	104.066
4.13204e+07	2089	-8593	1001	254.858	-1048.35	122.122
4.13407e+07	3991	-8414	894	486.902	-1026.51	109.068
4.1361e+07	7041	-8120	900	859.002	-990.64	109.8
4.13813e+07	9498	-8419	1565	1158.76	-1027.12	190.93
4.14017e+07	7445	-9089	2397	908.29	-1108.86	292.434
4.1422e+07	3844	-8963	2391	468.968	-1093.49	291.702
4.14423e+07	1951	-8651	1434	238.022	-1055.42	174.948
4.14626e+07	69	-10328	186	8.418	-1260.02	22.692
4.14829e+07	-2174	-14121	-243	-265.228	-1722.76	-29.646
4.15032e+07	-4393	-17279	37	-535.946	-2108.04	4.514
4.15235e+07	-7154	-19277	64	-872.788	-2351.79	7.808
4.15439e+07	-10793	-21696	1260	-1316.75	-2646.91	153.72
4.15642e+07	-13331	-16905	1787	-1626.38	-2062.41	218.014
4.15845e+07	-13723	-10842	1516	-1674.21	-1322.72	184.952
4.16048e+07	-11928	-7506	454	-1455.22	-915.732	55.388
4.16251e+07	-9434	-4422	-384	-1150.95	-539.484	-46.848
4.16454e+07	-7132	-976	588	-870.104	-119.072	71.736
4.16658e+07	-6244	956	1076	-761.768	116.632	131.272
4.16861e+07	-6513	1274	384	-794.586	155.428	46.848
4.17064e+07	-6029	1698	-424	-735.538	207.156	-51.728
4.17267e+07	-4966	2799	-771	-605.852	341.478	-94.062
4.1747e+07	-4302	3652	-1080	-524.844	445.544	-131.76
4.17673e+07	-4169	3394	-282	-508.618	414.068	-34.404
4.17877e+07	-4461	2094	562	-544.242	255.468	68.564
4.1808e+07	-5725	36	-7	-698.45	4.392	-0.854
4.18283e+07	-8924	-3685	-1518	-1088.73	-449.57	-185.196
4.18486e+07	-13087	-12970	-4890	-1596.61	-1582.34	-596.58
4.18689e+07	-15758	-25885	-6670	-1922.48	-3157.97	-813.74
4.18892e+07	-11984	-27114	-5430	-1462.05	-3307.91	-662.46
4.19096e+07	-8075	-20740	-4414	-985.15	-2530.28	-538.508
4.19299e+07	-5650	-16783	-3816	-689.3	-2047.53	-465.552
4.19502e+07	-3091	-14278	-2841	-377.102	-1741.92	-346.602
4.19705e+07	-1257	-13239	-2275	-153.354	-1615.16	-277.55
4.19908e+07	634	-12828	-928	77.348	-1565.02	-113.216
4.20111e+07	1310	-11147	300	159.82	-1359.93	36.6
4.20314e+07	1769	-8677	1027	215.818	-1058.59	125.294
4.20518e+07	3298	-6517	2162	402.356	-795.074	263.764
4.20721e+07	5807	-5142	2982	708.454	-627.324	363.804
4.20924e+07	7738	-4964	3194	944.036	-605.608	389.668
4.21127e+07	6711	-5866	2776	818.742	-715.652	338.672
4.2133e+07	4211	-6329	2202	513.742	-772.138	268.644
4.21533e+07	2784	-5895	1443	339.648	-719.19	176.046
4.21736e+07	1900	-6734	778	231.8	-821.548	94.916
4.2194e+07	1177	-10405	1712	143.594	-1269.41	208.864
4.22143e+07	492	-16536	2829	60.024	-2017.39	345.138
4.22346e+07	-1707	-22033	3133	-208.254	-2688.03	382.226
4.22549e+07	-8068	-23235	1437	-984.296	-2834.67	175.314
4.22752e+07	-19152	-17848	-311	-2336.54	-2177.46	-37.942
4.22955e+07	-13180	-9815	1982	-1607.96	-1197.43	241.804
4.23158e+07	-8484	-3794	2216	-1035.05	-462.868	270.352
4.23362e+07	-8097	-2258	1194	-987.834	-275.476	145.668
4.23565e+07	-6751	-2047	1073	-823.622	-249.734	130.906
4.23768e+07	-5563	-1779	967	-678.686	-217.038	117.974
4.23971e+07	-5699	-1062	276	-695.278	-129.564	33.672
4.24174e+07	-6129	322	-443	-747.738	39.284	-54.046
4.24377e+07	-6222	2304	-847	-759.084	281.088	-103.334
4.2458e+07	-5571	3550	-1080	-679.662	433.1	-131.76
4.24784e+07	-5143	4035	-837	-627.446	492.27	-102.114
4.24987e+07	-5416	3477	-44	-660.752	424.194	-5.368
4.2519e+07	-7904	796	144	-964.288	97.112	17.568
4.25393e+07	-12397	-4679	78	-1512.43	-570.838	9.516
4.25596e+07	-15651	-13000	607	-1909.42	-1586	74.054
4.25799e+07	-16460	-16773	2691	-2008.12	-2046.31	328.302
4.26003e+07	-14621	-17203	3196	-1783.76	-2098.77	389.912
4.26206e+07	-11617	-16455	2585	-1417.27	-2007.51	315.37
4.26409e+07	-8044	-14606	2485	-981.368	-1781.93	303.17
4.26612e+07	-5310	-13816	2062	-647.82	-1685.55	251.564
4.26815e+07	-3210	-12448	1687	-391.62	-1518.66	205.814
4.27018e+07	-1612	-10627	1575	-196.664	-1296.49	192.15
4.27221e+07	-443	-9055	1149	-54.046	-1104.71	140.178
4.27425e+07	1326	-7784	1408	161.772	-949.648	171.776
4.27628e+07	3401	-6630	1628	414.922	-808.86	198.616
4.27831e+07	5648	-5649	1780	689.056	-689.178	217.16
4.28034e+07	7027	-4970	1801	857.294	-606.34	219.722
4.28237e+07	6894	-5176	2232	841.068	-631.472	272.304
4.2844e+07	5412	-5967	1953	660.264	-727.974	238.266
4.28643e+07	4155	-6065	1543	506.91	-739.93	188.246
4.28846e+07	3481	-5650	1783	424.682	-689.3	217.526
4.2905e+07	2840	-8151	1677	346.48	-994.422	204.594
4.29253e+07	1411	-15057	941	172.142	-1836.95	114.802
4.29456e+07	-1487	-24722	1391	-181.414	-3016.08	169.702
4.29659e+07	-7005	-30252	1274	-854.61	-3690.74	155.428
4.29862e+07	-19908	-26864	-1010	-2428.78	-3277.41	-123.22
4.30065e+07	-16506	-17625	742	-2013.73	-2150.25	90.524
4.30269e+07	-12225	-9608	1454	-1491.45	-1172.18	177.388
4.30472e+07	-11079	-6548	479	-1351.64	-798.856	58.438
4.30675e+07	-9170	-3675	167	-1118.74	-448.35	20.374
4.30878e+07	-6907	-1881	266	-842.654	-229.482	32.452
4.31081e+07	-5918	-360	355	-721.996	-43.92	43.31
4.31284e+07	-5823	1187	-526	-710.406	144.814	-64.172
4.31487e+07	-5789	3036	-1196	-706.258	370.392	-145.912
4.31691e+07	-5335	4408	-1686	-650.87	537.776	-205.692
4.31894e+07	-5035	4908	-1470	-614.27	598.776	-179.34
4.32097e+07	-5217	3624	-620	-636.474	442.128	-75.64
4.323e+07	-5045	1371	-388	-615.49	167.262	-47.336
4.32503e+07	-5314	-133	-257	-648.308	-16.226	-31.354
4.32706e+07	-8919	-3402	-472	-1088.12	-415.044	-57.584
4.32909e+07	-13834	-13834	-1744	-1687.75	-1687.75	-212.768
4.33113e+07	-13833	-22401	-1885	-1687.63	-2732.92	-229.97
4.33316e+07	-11335	-20231	-1261	-1382.87	-2468.18	-153.842
4.33519e+07	-10136	-18937	-360	-1236.59	-2310.31	-43.92
4.33722e+07	-7488	-16361	428	-913.536	-1996.04	52.216
4.33925e+07	-4658	-14263	570	-568.276	-1740.09	69.54
4.34128e+07	-2256	-12612	1186	-275.232	-1538.66	144.692
4.34331e+07	-662	-10904	1738	-80.764	-1330.29	212.036
4.34535e+07	312	-9518	1296	38.064	-1161.2	158.112
4.34738e+07	1287	-7897	1037	157.014	-963.434	126.514
4.34941e+07	2626	-6323	1113	320.372	-771.406	135.786
4.35144e+07	4465	-5006	1206	544.73	-610.732	147.132
4.35347e+07	6450	-3938	1212	786.9	-480.436	147.864
4.3555e+07	7194	-3442	917	877.668	-419.924	111.874
4.35754e+07	6354	-3680	692	775.188	-448.96	84.424
4.35957e+07	5344	-4855	970	651.968	-592.31	118.34
4.3616e+07	5033	-7941	718	614.026	-968.802	87.596
4.36363e+07	4804	-13845	402	586.088	-1689.09	49.044
4.36566e+07	978	-26602	-610	119.316	-3245.44	-74.42
4.36769e+07	-5698	-30891	-2308	-695.156	-3768.7	-281.576
4.36972e+07	-18529	-23438	-2860	-2260.54	-2859.44	-348.92
4.37176e+07	-16844	-19390	682	-2054.97	-2365.58	83.204
4.37379e+07	-13219	-13241	-78	-1612.72	-1615.4	-9.516
4.37582e+07	-12490	-10174	-1028	-1523.78	-1241.23	-125.416
4.37785e+07	-10846	-5907	-801	-1323.21	-720.654	-97.722
4.37988e+07	-9449	-2685	-842	-1152.78	-327.57	-102.724
4.38191e+07	-8941	-259	-1340	-1090.8	-31.598	-163.48
4.38395e+07	-8063	1846	-1128	-983.686	225.212	-137.616
4.38598e+07	-6780	3316	-1204	-827.16	404.552	-146.888
4.38801e+07	-6025	4464	-1782	-735.05	544.608	-217.404
4.39004e+07	-5643	5018	-1782	-688.446	612.196	-217.404
4.39207e+07	-5365	4092	-854	-654.53	499.224	-104.188
4.3941e+07	-5734	1880	-259	-699.548	229.36	-31.598
4.39613e+07	-7129	-436	-674	-869.738	-53.192	-82.228
4.39817e+07	-10752	-4482	-1876	-1311.74	-546.804	-228.872
4.4002e+07	-15617	-13555	-1347	-1905.27	-1653.71	-164.334
4.40223e+07	-15964	-21396	1339	-1947.61	-2610.31	163.358
4.40426e+07	-11749	-20699	2649	-1433.38	-2525.28	323.178
4.40629e+07	-10107	-16484	2379	-1233.05	-2011.05	290.238
4.40832e+07	-6856	-14210	2147	-836.432	-1733.62	261.934
4.41036e+07	-3797	-14279	1931	-463.234	-1742.04	235.582
4.41239e+07	-1717	-12654	2178	-209.474	-1543.79	265.716
4.41442e+07	-706	-10155	1762	-86.132	-1238.91	214.964
4.41645e+07	285	-8802	806	34.77	-1073.84	98.332
4.41848e+07	1906	-7676	-188	232.532	-936.472	-22.936
4.42051e+07	4460	-6234	-523	544.12	-760.548	-63.806
4.42255e+07	7991	-5570	-651	974.902	-679.54	-79.422
4.42458e+07	10715	-6082	-483	1307.23	-742.004	-58.926
4.42661e+07	9017	-6505	49	1100.07	-793.61	5.978
4.42864e+07	6158	-6402	264	751.276	-781.044	32.208
4.43067e+07	4947	-6556	540	603.534	-799.832	65.88
4.4327e+07	3552	-8855	1089	433.344	-1080.31	132.858
4.43474e+07	686	-16678	2415	83.692	-2034.72	294.63
4.43677e+07	-2867	-26921	4385	-349.774	-3284.36	534.97
4.4388e+07	-11762	-24013	3798	-1434.96	-2929.59	463.356
4.44083e+07	-19595	-22651	6445	-2390.59	-2763.42	786.29
4.44286e+07	-16864	-17529	6217	-2057.41	-2138.54	758.474
4.44489e+07	-14965	-10980	4656	-1825.73	-1339.56	568.032
4.44692e+07	-13607	-6086	2920	-1660.05	-742.492	356.24
4.44896e+07	-10291	-4180	2465	-1255.5	-509.96	300.73
4.45099e+07	-8030	-2982	2104	-979.66	-363.804	256.688
4.45302e+07	-6390	-37	1527	-779.58	-4.514	186.294
4.45505e+07	-5134	2608	209	-626.348	318.176	25.498
4.45708e+07	-4463	3661	-1059	-544.486	446.642	-129.198
4.45911e+07	-4420	4290	-1908	-539.24	523.38	-232.776
4.46115e+07	-4847	4687	-2321	-591.334	571.814	-283.162
4.46318e+07	-5059	3201	-2249	-617.198	390.522	-274.378
4.46521e+07	-5277	1422	-1333	-643.794	173.484	-162.626
4.46724e+07	-5895	1006	221	-719.19	122.732	26.962
4.46927e+07	-9308	838	-359	-1135.58	102.236	-43.798
4.4713e+07	-16413	-3169	-2406	-2002.39	-386.618	-293.532
4.47334e+07	-19996	-13833	-1674	-2439.51	-1687.63	-204.228
4.47537e+07	-15584	-19138	-238	-1901.25	-2334.84	-29.036
4.4774e+07	-14583	-20835	-370	-1779.13	-2541.87	-45.14
4.47943e+07	-11893	-23609	-1244	-1450.95	-2880.3	-151.768
4.48146e+07	-7124	-20256	-556	-869.128	-2471.23	-67.832
4.4835e+07	-3715	-15717	145	-453.23	-1917.47	17.69
4.48553e+07	-1953	-12579	366	-238.266	-1534.64	44.652
4.48756e+07	-771	-10684	258	-94.062	-1303.45	31.476
4.48959e+07	790	-9804	501	96.38	-1196.09	61.122
4.49162e+07	2147	-8823	1114	261.934	-1076.41	135.908
4.49365e+07	3344	-7875	1797	407.968	-960.75	219.234
4.49568e+07	5108	-6992	2755	623.176	-853.024	336.11
4.49772e+07	6724	-5879	3527	820.328	-717.238	430.294
4.49975e+07	6364	-5485	3619	776.408	-669.17	441.518
4.50178e+07	4386	-5552	2954	535.092	-677.344	360.388
4.50381e+07	2630	-5401	2333	320.86	-658.922	284.626
4.50584e+07	1732	-6378	1715	211.304	-778.116	209.23
4.50787e+07	803	-10327	1776	97.966	-1259.89	216.672
4.50991e+07	-562	-16444	2453	-68.564	-2006.17	299.266
4.51194e+07	-5594	-21555	2480	-682.468	-2629.71	302.56
4.51397e+07	-13096	-25247	1936	-1597.71	-3080.13	236.192
4.516e+07	-15691	-19916	2715	-1914.3	-2429.75	331.23
4.51803e+07	-13288	-13117	2628	-1621.14	-1600.27	320.616
4.52006e+07	-11596	-9287	1742	-1414.71	-1133.01	212.524
4.52209e+07	-10447	-5987	1161	-1274.53	-730.414	141.642
4.52413e+07	-8450	-3369	1092	-1030.9	-411.018	133.224
4.52616e+07	-6991	-1095	855	-852.902	-133.59	104.31
4.52819e+07	-5987	891	774	-730.414	108.702	94.428
4.53022e+07	-5160	2326	262	-629.52	283.772	31.964
4.53225e+07	-4796	2958	-1052	-585.112	360.876	-128.344
4.53429e+07	-4990	3128	-1297	-608.78	381.616	-158.234
4.53632e+07	-5410	2435	-842	-660.02	297.07	-102.724
4.53835e+07	-6206	291	-624	-757.132	35.502	-76.128
4.54038e+07	-8296	-2435	-431	-1012.11	-297.07	-52.582
4.54241e+07	-11427	-6064	-444	-1394.09	-739.808	-54.168
4.54445e+07	-12822	-11088	674	-1564.28	-1352.74	82.228
4.54648e+07	-11612	-14020	1723	-1416.66	-1710.44	210.206
4.54851e+07	-12376	-14843	1150	-1509.87	-1810.85	140.3
4.55054e+07	-11091	-17416	-48	-1353.1	-2124.75	-5.856
4.55257e+07	-7453	-16426	901	-909.266	-2003.97	109.922
4.5546e+07	-4033	-14678	1622	-492.026	-1790.72	197.884
4.55664e+07	-1158	-13879	1210	-141.276	-1693.24	147.62
4.55867e+07	414	-11782	997	50.508	-1437.4	121.634
4.5607e+07	1185	-10338	1244	144.57	-1261.24	151.768
4.56273e+07	1916	-9124	1219	233.752	-1113.13	148.718
4.56476e+07	3107	-8068	1698	379.054	-984.296	207.156
4.5668e+07	4636	-7122	2518	565.592	-868.884	307.196
4.56883e+07	5974	-5924	3254	728.828	-722.728	396.988
4.57086e+07	6303	-4999	3546	768.966	-609.878	432.612
4.57289e+07	4427	-5097	3198	540.094	-621.834	390.156
4.57492e+07	2335	-5495	2031	284.87	-670.39	247.782
4.57696e+07	865	-5602	723	105.53	-683.444	88.206
4.57899e+07	642	-9088	483	78.324	-1108.74	58.926
4.58102e+07	2132	-16605	1897	260.104	-2025.81	231.434
4.58305e+07	-2222	-23938	2646	-271.084	-2920.44	322.812
4.58508e+07	-9829	-26858	-181	-1199.14	-3276.68	-22.082
4.58711e+07	-12744	-21821	341	-1554.77	-2662.16	41.602
4.58915e+07	-11081	-16825	2229	-1351.88	-2052.65	271.938
4.59118e+07	-8980	-12269	2245	-1095.56	-1496.82	273.89
4.59321e+07	-9003	-8585	1409	-1098.37	-1047.37	171.898
4.59524e+07	-8189	-5589	920	-999.058	-681.858	112.24
4.59727e+07	-6893	-2685	1012	-840.946	-327.57	123.464
4.59931e+07	-6182	-365	837	-754.204	-44.53	102.114
4.60134e+07	-6237	1025	-211	-760.914	125.05	-25.742
4.60337e+07	-6316	2144	-1181	-770.552	261.568	-144.082
4.6054e+07	-6134	3383	-1551	-748.348	412.726	-189.222
4.60743e+07	-5556	3930	-2268	-677.832	479.46	-276.696
4.60946e+07	-5070	3598	-2495	-618.54	438.956	-304.39
4.6115e+07	-4816	1989	-1984	-587.552	242.658	-242.048
4.61353e+07	-4762	190	-1803	-580.964	23.18	-219.966
4.61556e+07	-5810	-912	-2157	-708.82	-111.264	-263.154
4.61759e+07	-10409	-5718	-1457	-1269.9	-697.596	-177.754
4.61962e+07	-15573	-17970	-2867	-1899.91	-2192.34	-349.774
4.62165e+07	-14665	-20133	-582	-1789.13	-2456.23	-71.004
4.62369e+07	-12186	-18898	4856	-1486.69	-2305.56	592.432
4.62572e+07	-10888	-17566	6066	-1328.34	-2143.05	740.052
4.62775e+07	-8297	-18154	4452	-1012.23	-2214.79	543.144
4.62978e+07	-4884	-17938	3864	-595.848	-2188.44	471.408
4.63181e+07	-2209	-14577	4222	-269.498	-1778.39	515.084
4.63385e+07	-66	-11009	3957	-8.052	-1343.1	482.754
4.63588e+07	2007	-8007	3420	244.854	-976.854	417.24
4.63791e+07	4072	-5673	2555	496.784	-692.106	311.71
4.63994e+07	6745	-5197	1936	822.89	-634.034	236.192
4.64197e+07	7876	-5247	1868	960.872	-640.134	227.896
4.644e+07	6206	-4709	1851	757.132	-574.498	225.822
4.64604e+07	4323	-4537	1666	527.406	-553.514	203.252
4.64807e+07	3086	-5652	917	376.492	-689.544	111.874
4.6501e+07	2269	-8555	-383	276.818	-1043.71	-46.726
4.65213e+07	1038	-15839	378	126.636	-1932.36	46.116
4.65416e+07	-6967	-27108	1578	-849.974	-3307.18	192.516
4.65619e+07	-13925	-27797	686	-1698.85	-3391.23	83.692
4.65823e+07	-16192	-23410	1848	-1975.42	-2856.02	225.456
4.66026e+07	-14864	-17705	2986	-1813.41	-2160.01	364.292
4.66229e+07	-12895	-13296	1778	-1573.19	-1622.11	216.916
4.66432e+07	-11322	-11287	75	-1381.28	-1377.01	9.15
4.66635e+07	-9258	-7257	46	-1129.48	-885.354	5.612
4.66838e+07	-7302	-2320	782	-890.844	-283.04	95.404
4.67042e+07	-5395	1878	864	-658.19	229.116	105.408
4.67245e+07	-4355	4125	-266	-531.31	503.25	-32.452
4.67448e+07	-4241	5263	-680	-517.402	642.086	-82.96
4.67651e+07	-4524	5668	-884	-551.928	691.496	-107.848
4.67854e+07	-4563	5686	-1680	-556.686	693.692	-204.96
4.68057e+07	-5091	5285	-2623	-621.102	644.77	-320.006
4.68261e+07	-5864	3735	-2589	-715.408	455.67	-315.858
4.68464e+07	-6539	2483	-1809	-797.758	302.926	-220.698
4.68667e+07	-8375	1076	-980	-1021.75	131.272	-119.56
4.6887e+07	-13949	-2773	-1905	-1701.78	-338.306	-232.41
4.69073e+07	-21910	-13006	-4277	-2673.02	-1586.73	-521.794
4.69276e+07	-22896	-27210	-1307	-2793.31	-3319.62	-159.454
4.6948e+07	-15869	-25536	1253	-1936.02	-3115.39	152.866
4.69683e+07	-14168	-16013	2799	-1728.5	-1953.59	341.478
4.69886e+07	-10451	-15889	3236	-1275.02	-1938.46	394.792
4.70089e+07	-6178	-17087	2309	-753.716	-2084.61	281.698
4.70292e+07	-3083	-12644	2842	-376.126	-1542.57	346.724
4.70495e+07	-819	-9554	3101	-99.918	-1165.59	378.322
4.70698e+07	703	-8992	2525	85.766	-1097.02	308.05
4.70902e+07	2387	-9286	2423	291.214	-1132.89	295.606
4.71105e+07	3934	-7960	2801	479.948	-971.12	341.722
4.71308e+07	5512	-6871	3574	672.464	-838.262	436.028
4.71511e+07	6745	-7178	4031	822.89	-875.716	491.782
4.71714e+07	5494	-6983	3367	670.268	-851.926	410.774
4.71918e+07	3789	-6261	2867	462.258	-763.842	349.774
4.72121e+07	2598	-6802	2461	316.956	-829.844	300.242
4.72324e+07	1600	-8877	1784	195.2	-1082.99	217.648
4.72527e+07	422	-13262	2506	51.484	-1617.96	305.732
4.7273e+07	-2206	-20844	5119	-269.132	-2542.97	624.518
4.72933e+07	-13442	-27814	3008	-1639.92	-3393.31	366.976
4.73136e+07	-17583	-26245	3444	-2145.13	-3201.89	420.168
4.7334e+07	-15747	-16112	3377	-1921.13	-1965.66	411.994
4.73543e+07	-13936	-10723	3193	-1700.19	-1308.21	389.546
4.73746e+07	-12190	-6745	1681	-1487.18	-822.89	205.082
4.73949e+07	-9256	-3642	823	-1129.23	-444.324	100.406
4.74152e+07	-6686	-1251	1544	-815.692	-152.622	188.368
4.74355e+07	-5041	423	1808	-615.002	51.606	220.576
4.74559e+07	-4964	1028	996	-605.608	125.416	121.512
4.74762e+07	-5556	1971	-115	-677.832	240.462	-14.03
4.74965e+07	-5398	3690	-950	-658.556	450.18	-115.9
4.75168e+07	-4923	5179	-1640	-600.606	631.838	-200.08
4.75371e+07	-4482	5724	-2039	-546.804	698.328	-248.758
4.75574e+07	-4209	4348	-1752	-513.498	530.456	-213.744
4.75778e+07	-5586	1914	-1351	-681.492	233.508	-164.822
4.75981e+07	-9339	406	-319	-1139.36	49.532	-38.918
4.76184e+07	-12075	-2951	979	-1473.15	-360.022	119.438
4.76387e+07	-18522	-14644	-1196	-2259.68	-1786.57	-145.912
4.7659e+07	-17464	-27031	-1192	-2130.61	-3297.78	-145.424
4.76794e+07	-12592	-21591	455	-1536.22	-2634.1	55.51
4.76997e+07	-10685	-18939	1032	-1303.57	-2310.56	125.904
4.772e+07	-6464	-18488	-120	-788.608	-2255.54	-14.64
4.77403e+07	-3234	-16958	-231	-394.548	-2068.88	-28.182
4.77606e+07	-1250	-13997	554	-152.5	-1707.63	67.588
4.77809e+07	199	-11046	1100	24.278	-1347.61	134.2
4.78013e+07	1590	-8610	1054	193.98	-1050.42	128.588
4.78216e+07	2964	-6392	1241	361.608	-779.824	151.402
4.78419e+07	4534	-4279	1504	553.148	-522.038	183.488
4.78622e+07	6660	-3065	1557	812.52	-373.93	189.954
4.78825e+07	7776	-3547	1379	948.672	-432.734	168.238
4.79028e+07	5715	-4492	1681	697.23	-548.024	205.082
4.79232e+07	3374	-6287	1719	411.628	-767.014	209.718
4.79435e+07	2430	-9852	1314	296.46	-1201.94	160.308
4.79638e+07	92	-16344	1682	11.224	-1993.97	205.204
4.79841e+07	-8016	-25946	3281	-977.952	-3165.41	400.282
4.80044e+07	-14234	-28221	2778	-1736.55	-3442.96	338.916
4.80247e+07	-16548	-20956	3508	-2018.86	-2556.63	427.976
4.80451e+07	-14928	-13644	3165	-1821.22	-1664.57	386.13
4.80654e+07	-12272	-9320	2879	-1497.18	-1137.04	351.238
4.80857e+07	-10918	-7982	2272	-1332	-973.804	277.184
4.8106e+07	-9034	-5153	2471	-1102.15	-628.666	301.462
4.81263e+07	-7584	-1494	1913	-925.248	-182.268	233.386
4.81466e+07	-6458	2134	1181	-787.876	260.348	144.082
4.81669e+07	-5336	4331	11	-650.992	528.382	1.342
4.81873e+07	-5135	5377	-1686	-626.47	655.994	-205.692
4.82076e+07	-5146	6418	-2119	-627.812	782.996	-258.518
4.82279e+07	-4885	6592	-2193	-595.97	804.224	-267.546
4.82482e+07	-5562	4678	-2816	-678.564	570.716	-343.552
4.82685e+07	-6046	2796	-3128	-737.612	341.112	-381.616
4.82888e+07	-6700	1331	-2256	-817.4	162.382	-275.232
4.83092e+07	-10800	-2757	-1213	-1317.6	-336.354	-147.986
4.83295e+07	-17667	-13905	-4339	-2155.37	-1696.41	-529.358
4.83498e+07	-19086	-26799	-5946	-2328.49	-3269.48	-725.412
4.83701e+07	-13896	-26219	-4838	-1695.31	-3198.72	-590.236
4.83904e+07	-11388	-21501	-2675	-1389.34	-2623.12	-326.35
4.84107e+07	-7561	-18871	-1350	-922.442	-2302.26	-164.7
4.8431e+07	-3282	-16860	-211	-400.404	-2056.92	-25.742
4.84514e+07	-794	-12736	506	-96.868	-1553.79	61.732
4.84717e+07	1221	-9747	846	148.962	-1189.13	103.212
4.8492e+07	2753	-8309	1485	335.866	-1013.7	181.17
4.85123e+07	3823	-7572	2164	466.406	-923.784	264.008
4.85326e+07	4665	-7675	2100	569.13	-936.35	256.2
4.85529e+07	4919	-8402	2156	600.118	-1025.04	263.032
4.85733e+07	4313	-8769	2563	526.186	-1069.82	312.686
4.85936e+07	3133	-7783	2471	382.226	-949.526	301.462
4.86139e+07	2047	-6419	2016	249.734	-783.118	245.952
4.86342e+07	902	-6018	1243	110.044	-734.196	151.646
4.86545e+07	-288	-6139	410	-35.136	-748.958	50.02
4.86748e+07	-431	-9508	1523	-52.582	-1159.98	185.806
4.86952e+07	-1692	-17954	2672	-206.424	-2190.39	325.984
4.87155e+07	-9575	-26910	2538	-1168.15	-3283.02	309.636
4.87358e+07	-15360	-28537	481	-1873.92	-3481.51	58.682
4.87561e+07	-14484	-17980	1392	-1767.05	-2193.56	169.824
4.87764e+07	-12834	-10315	2004	-1565.75	-1258.43	244.488
4.87967e+07	-11266	-5899	1018	-1374.45	-719.678	124.196
4.8817e+07	-8746	-3254	922	-1067.01	-396.988	112.484
4.88374e+07	-7124	-1005	1013	-869.128	-122.61	123.586
4.88577e+07	-6643	1084	-40	-810.446	132.248	-4.88
4.8878e+07	-6480	2497	-868	-790.56	304.634	-105.896
4.88983e+07	-6055	4137	-1109	-738.71	504.714	-135.298
4.89186e+07	-6061	5173	-1430	-739.442	631.106	-174.46
4.89389e+07	-6441	5042	-1292	-785.802	615.124	-157.624
4.89592e+07	-6624	4270	-1503	-808.128	520.94	-183.366
4.89795e+07	-6713	3829	-940	-818.986	467.138	-114.68
4.89999e+07	-7850	1177	-501	-957.7	143.594	-61.122
4.90202e+07	-11627	-3137	-408	-1418.49	-382.714	-49.776
4.90405e+07	-15265	-9999	-405	-1862.33	-1219.88	-49.41
4.90608e+07	-17682	-17064	-679	-2157.2	-2081.81	-82.838
4.90811e+07	-16578	-21195	764	-2022.52	-2585.79	93.208
4.91014e+07	-13941	-19747	1887	-1700.8	-2409.13	230.214
4.91217e+07	-10643	-17789	1237	-1298.45	-2170.26	150.914
4.91421e+07	-6167	-16419	1276	-752.374	-2003.12	155.672
4.91624e+07	-2954	-14536	1738	-360.388	-1773.39	212.036
4.91827e+07	-1340	-12621	1755	-163.48	-1539.76	214.11
4.9203e+07	-441	-10779	1484	-53.802	-1315.04	181.048
4.92233e+07	556	-8635	1241	67.832	-1053.47	151.402
4.92436e+07	1973	-6815	1415	240.706	-831.43	172.63
4.9264e+07	3678	-5679	1758	448.716	-692.838	214.476
4.92843e+07	5864	-4613	1843	715.408	-562.786	224.846
4.93046e+07	6713	-4751	1710	818.986	-579.622	208.62
4.93249e+07	4682	-5377	1143	571.204	-655.994	139.446
4.93452e+07	2506	-5602	1030	305.732	-683.444	125.66
4.93655e+07	1029	-7175	539	125.538	-875.35	65.758
4.93858e+07	236	-12281	98	28.792	-1498.28	11.956
4.94062e+07	-568	-18890	-181	-69.296	-2304.58	-22.082
4.94265e+07	-3637	-20287	662	-443.714	-2475.01	80.764
4.94468e+07	-9273	-21720	2700	-1131.31	-2649.84	329.4
4.94671e+07	-12352	-19779	3585	-1506.94	-2413.04	437.37
4.94874e+07	-13088	-13540	3450	-1596.74	-1651.88	420.9
4.95077e+07	-10943	-9111	2844	-1335.05	-1111.54	346.968
4.95281e+07	-8522	-5692	1982	-1039.68	-694.424	241.804
4.95484e+07	-6680	-2947	2115	-814.96	-359.534	258.03
4.95687e+07	-5228	-677	2668	-637.816	-82.594	325.496
4.9589e+07	-4463	686	2005	-544.486	83.692	244.61
4.96093e+07	-4450	1577	11	-542.9	192.394	1.342
4.96296e+07	-4598	3093	-1167	-560.956	377.346	-142.374
4.96499e+07	-4821	4582	-1408	-588.162	559.004	-171.776
4.96702e+07	-5229	5246	-1090	-637.938	640.012	-132.98
4.96906e+07	-5603	4438	-898	-683.566	541.436	-109.556
4.97109e+07	-6176	1904	-704	-753.472	232.288	-85.888
4.97312e+07	-9431	-1201	838	-1150.58	-146.522	102.236
4.97515e+07	-14914	-9880	2943	-1819.51	-1205.36	359.046
4.97718e+07	-17858	-17563	1806	-2178.68	-2142.69	220.332
4.97921e+07	-17410	-14605	6817	-2124.02	-1781.81	831.674
4.98124e+07	-15251	-14989	8061	-1860.62	-1828.66	983.442
4.98328e+07	-10768	-14429	6015	-1313.7	-1760.34	733.83
4.98531e+07	-7408	-14356	2687	-903.776	-1751.43	327.814
4.98734e+07	-5094	-12899	1039	-621.468	-1573.68	126.758
4.98937e+07	-3629	-11086	981	-442.738	-1352.49	119.682
4.9914e+07	-2200	-9073	1845	-268.4	-1106.91	225.09
4.99343e+07	-400	-7025	2194	-48.8	-857.05	267.668
4.99546e+07	1337	-5504	1811	163.114	-671.488	220.942
4.9975e+07	3088	-4668	1323	376.736	-569.496	161.406
4.99953e+07	4739	-4576	1187	578.158	-558.272	144.814
5.00156e+07	5637	-5137	1248	687.714	-626.714	152.256
5.00359e+07	5058	-5886	1258	617.076	-718.092	153.476
5.00562e+07	3597	-7023	866	438.834	-856.806	105.652
5.00765e+07	2203	-9315	149	268.766	-1136.43	18.178
5.00968e+07	-120	-12949	110	-14.64	-1579.78	13.42
5.01171e+07	-3986	-17416	1378	-486.292	-2124.75	168.116
5.01375e+07	-9942	-22593	2483	-1212.92	-2756.35	302.926
5.01578e+07	-15580	-21557	2254	-1900.76	-2629.95	274.988
5.01781e+07	-17664	-16279	4001	-2155.01	-1986.04	488.122
5.01984e+07	-15042	-10234	3804	-1835.12	-1248.55	464.088
5.02187e+07	-12349	-5987	3307	-1506.58	-730.414	403.454
5.0239e+07	-10126	-4183	2395	-1235.37	-510.326	292.19
5.02593e+07	-8186	-3259	2066	-998.692	-397.598	252.052
5.02796e+07	-6753	-1977	1809	-823.866	-241.194	220.698
5.02999e+07	-5929	-570	1005	-723.338	-69.54	122.61
5.03203e+07	-5532	677	2	-674.904	82.594	0.244
5.03406e+07	-5028	1977	-491	-613.416	241.194	-59.902
5.03609e+07	-4320	3065	-883	-527.04	373.93	-107.726
5.03812e+07	-3767	3269	-1184	-459.574	398.818	-144.448
5.04015e+07	-3730	2038	-1083	-455.06	248.636	-132.126
5.04218e+07	-3974	-117	-622	-484.828	-14.274	-75.884
5.04421e+07	-4254	-2154	-585	-518.988	-262.788	-71.37
5.04625e+07	-6565	-5660	-992	-800.93	-690.52	-121.024
5.04828e+07	-11942	-14224	-2958	-1456.92	-1735.33	-360.876
5.05031e+07	-13154	-19624	59	-1604.79	-2394.13	7.198
5.05234e+07	-10069	-13993	5594	-1228.42	-1707.15	682.468
5.05437e+07	-9955	-11797	7352	-1214.51	-1439.23	896.944
5.0564e+07	-6756	-12756	4620	-824.232	-1556.23	563.64
5.05844e+07	-4420	-14776	2201	-539.24	-1802.67	268.522
5.06047e+07	-2712	-14698	1682	-330.864	-1793.16	205.204
5.0625e+07	-1632	-12248	1739	-199.104	-1494.26	212.158
5.06453e+07	-1102	-9673	1700	-134.444	-1180.11	207.4
5.06656e+07	-315	-7778	1768	-38.43	-948.916	215.696
5.06859e+07	990	-6316	2163	120.78	-770.552	263.886
5.07062e+07	2308	-4283	2757	281.576	-522.526	336.354
5.07266e+07	3214	-2648	3130	392.108	-323.056	381.86
5.07469e+07	3109	-2862	2976	379.298	-349.164	363.072
5.07672e+07	2476	-4030	2292	302.072	-491.66	279.624
5.07875e+07	2154	-4980	985	262.788	-607.56	120.17
5.08078e+07	1544	-8549	795	188.368	-1042.98	96.99
5.08281e+07	166	-18620	2185	20.252	-2271.64	266.57
5.08485e+07	-2497	-24560	1486	-304.634	-2996.32	181.292
5.08688e+07	-8616	-22794	-242	-1051.15	-2780.87	-29.524
5.08891e+07	-12277	-21415	-438	-1497.79	-2612.63	-53.436
5.09094e+07	-12281	-13870	551	-1498.28	-1692.14	67.222
5.09297e+07	-9800	-8431	882	-1195.6	-1028.58	107.604
5.095e+07	-7733	-6891	1706	-943.426	-840.702	208.132
5.09703e+07	-6680	-6090	2760	-814.96	-742.98	336.72
5.09907e+07	-5516	-4001	3164	-672.952	-488.122	386.008
5.1011e+07	-5246	-1439	1983	-640.012	-175.558	241.926
5.10313e+07	-5344	804	179	-651.968	98.088	21.838
5.10516e+07	-5264	3266	-600	-642.208	398.452	-73.2
5.10719e+07	-5182	5888	-431	-632.204	718.336	-52.582
5.10922e+07	-4354	6864	-606	-531.188	837.408	-73.932
5.11126e+07	-4874	5886	-1132	-594.628	718.092	-138.104
5.11329e+07	-6418	1255	-2370	-782.996	153.11	-289.14
5.11532e+07	-6836	-4061	-2481	-833.992	-495.442	-302.682
5.11735e+07	-6970	-5556	1196	-850.34	-677.832	145.912
5.11938e+07	-11116	-11544	7088	-1356.15	-1408.37	864.736
5.12141e+07	-14379	-16782	10013	-1754.24	-2047.4	1221.59
5.12345e+07	-16309	-11035	6342	-1989.7	-1346.27	773.724
5.12548e+07	-15624	-2599	5611	-1906.13	-317.078	684.542
5.12751e+07	-16887	4207	15021	-2060.21	513.254	1832.56
5.12954e+07	-11247	-1610	12917	-1372.13	-196.42	1575.87
5.13157e+07	-9851	-12744	6361	-1201.82	-1554.77	776.042
5.1336e+07	-7458	-15094	4941	-909.876	-1841.47	602.802
5.13563e+07	-4015	-10668	5048	-489.83	-1301.5	615.856
5.13767e+07	-148	-7979	4715	-18.056	-973.438	575.23
5.1397e+07	3240	-5417	4054	395.28	-660.874	494.588
5.14173e+07	4566	-2912	3376	557.052	-355.264	411.872
5.14376e+07	3795	-868	3268	462.99	-105.896	398.696
5.14579e+07	2857	-459	2237	348.554	-55.998	272.914
5.14782e+07	2698	-2268	1783	329.156	-276.696	217.526
5.14986e+07	2546	-4882	1462	310.612	-595.604	178.364
5.15189e+07	2260	-6598	1961	275.72	-804.956	239.242
5.15392e+07	1138	-9714	3414	138.836	-1185.11	416.508
5.15595e+07	-12	-15374	5777	-1.464	-1875.63	704.794
5.15798e+07	-2061	-18571	8535	-251.442	-2265.66	1041.27
5.16002e+07	-4816	-20359	11984	-587.552	-2483.8	1462.05
5.16205e+07	-15053	-18492	7072	-1836.47	-2256.02	862.784
5.16408e+07	-25214	-11926	6390	-3076.11	-1454.97	779.58
5.16611e+07	-12356	-7741	4338	-1507.43	-944.402	529.236
5.16814e+07	-8201	-6825	3554	-1000.52	-832.65	433.588
5.17017e+07	-9523	-5507	3055	-1161.81	-671.854	372.71
5.1722e+07	-6908	-2096	3747	-842.776	-255.712	457.134
5.17424e+07	-4531	885	3355	-552.782	107.97	409.31
5.17627e+07	-4101	2647	2440	-500.322	322.934	297.68
5.1783e+07	-4036	3749	943	-492.392	457.378	115.046
5.18033e+07	-3719	4969	-348	-453.718	606.218	-42.456
5.18236e+07	-3800	6220	-1512	-463.6	758.84	-184.464
5.18439e+07	-4421	6036	-2057	-539.362	736.392	-250.954
5.18643e+07	-5434	3840	-1695	-662.948	468.48	-206.79
5.18846e+07	-7290	1642	-1636	-889.38	200.324	-199.592
5.19049e+07	-11583	-1748	-1821	-1413.13	-213.256	-222.162
5.19252e+07	-17027	-11235	-2124	-2077.29	-1370.67	-259.128
5.19455e+07	-16831	-17066	1412	-2053.38	-2082.05	172.264
5.19658e+07	-14705	-16158	3020	-1794.01	-1971.28	368.44
5.19861e+07	-14520	-19781	-1088	-1771.44	-2413.28	-132.736
5.20065e+07	-10764	-19709	-1026	-1313.21	-2404.5	-125.172
5.20268e+07	-6824	-16761	860	-832.528	-2044.84	104.92
5.20471e+07	-4787	-13108	2022	-584.014	-1599.18	246.684
5.20674e+07	-3368	-10003	2400	-410.896	-1220.37	292.8
5.20877e+07	-2009	-8214	2299	-245.098	-1002.11	280.478
5.2108e+07	-687	-7063	2349	-83.814	-861.686	286.578
5.21284e+07	647	-6418	2986	78.934	-782.996	364.292
5.21487e+07	2100	-6056	3256	256.2	-738.832	397.232
5.2169e+07	4169	-5945	3169	508.618	-725.29	386.618
5.21893e+07	5617	-6361	2962	685.274	-776.042	361.364
5.22096e+07	5225	-7928	2652	637.45	-967.216	323.544
5.22299e+07	3843	-8665	1858	468.846	-1057.13	226.676
5.22503e+07	2226	-9243	1560	271.572	-1127.65	190.32
5.22706e+07	464	-12492	2193	56.608	-1524.02	267.546
5.22909e+07	-1794	-17018	2352	-218.868	-2076.2	286.944
5.23112e+07	-6507	-18344	1410	-793.854	-2237.97	172.02
5.23315e+07	-10624	-20668	1867	-1296.13	-2521.5	227.774
5.23518e+07	-13926	-19890	2596	-1698.97	-2426.58	316.712
5.23721e+07	-14374	-15090	2714	-1753.63	-1840.98	331.108
5.23924e+07	-14169	-10292	2159	-1728.62	-1255.62	263.398
5.24128e+07	-12398	-5755	1827	-1512.56	-702.11	222.894
5.24331e+07	-9713	-2130	1719	-1184.99	-259.86	209.718
5.24534e+07	-8201	580	1115	-1000.52	70.76	136.03
5.24737e+07	-7297	1777	147	-890.234	216.794	17.934
5.2494e+07	-6301	2643	-228	-768.722	322.446	-27.816
5.25143e+07	-5434	4114	-314	-662.948	501.908	-38.308
5.25347e+07	-4941	5376	-86	-602.802	655.872	-10.492
5.2555e+07	-5412	5509	-533	-660.264	672.098	-65.026
5.25753e+07	-6573	3758	-493	-801.906	458.476	-60.146
5.25956e+07	-7819	671	107	-953.918	81.862	13.054
5.26159e+07	-10578	-1722	-720	-1290.52	-210.084	-87.84
5.26362e+07	-15084	-5122	-583	-1840.25	-624.884	-71.126
5.26565e+07	-16804	-14805	1124	-2050.09	-1806.21	137.128
5.26769e+07	-14080	-20213	-560	-1717.76	-2465.99	-68.32
5.26972e+07	-11591	-16927	-502	-1414.1	-2065.09	-61.244
5.27175e+07	-9289	-18268	-481	-1133.26	-2228.7	-58.682
5.27378e+07	-5861	-18152	432	-715.042	-2214.54	52.704
5.27581e+07	-2730	-14948	2068	-333.06	-1823.66	252.296
5.27784e+07	-1250	-12481	2342	-152.5	-1522.68	285.724
5.27988e+07	-649	-11303	2363	-79.178	-1378.97	288.286
5.28191e+07	307	-10147	2250	37.454	-1237.93	274.5
5.28394e+07	1550	-8242	2228	189.1	-1005.52	271.816
5.28597e+07	2865	-6513	2172	349.53	-794.586	264.984
5.288e+07	4226	-5672	2655	515.572	-691.984	323.91
5.29003e+07	4887	-5611	2858	596.214	-684.542	348.676
5.29206e+07	4475	-5565	2284	545.95	-678.93	278.648
5.2941e+07	3683	-5344	1665	449.326	-651.968	203.13
5.29613e+07	2858	-5849	1503	348.676	-713.578	183.366
5.29816e+07	1744	-7931	505	212.768	-967.582	61.61
5.30019e+07	1147	-11286	561	139.934	-1376.89	68.442
5.30222e+07	-991	-18504	2148	-120.902	-2257.49	262.056
5.30425e+07	-6039	-24726	3212	-736.758	-3016.57	391.864
5.30628e+07	-10708	-26609	2874	-1306.38	-3246.3	350.628
5.30832e+07	-13011	-19844	2722	-1587.34	-2420.97	332.084
5.31035e+07	-12629	-13487	2978	-1540.74	-1645.41	363.316
5.31238e+07	-11455	-10326	2160	-1397.51	-1259.77	263.52
5.31441e+07	-10472	-7527	984	-1277.58	-918.294	120.048
5.31644e+07	-8820	-3849	773	-1076.04	-469.578	94.306
5.31847e+07	-6996	-266	768	-853.512	-32.452	93.696
5.32051e+07	-6022	2384	-387	-734.684	290.848	-47.214
5.32254e+07	-5767	3983	-1405	-703.574	485.926	-171.41
5.32457e+07	-5490	5208	-2046	-669.78	635.376	-249.612
5.3266e+07	-5249	5835	-1953	-640.378	711.87	-238.266
5.32863e+07	-5361	5021	-1833	-654.042	612.562	-223.626
5.33066e+07	-6050	3323	-1036	-738.1	405.406	-126.392
5.3327e+07	-7428	1433	-340	-906.216	174.826	-41.48
5.33473e+07	-10639	-2772	667	-1297.96	-338.184	81.374
5.33676e+07	-15084	-11745	1418	-1840.25	-1432.89	172.996
5.33879e+07	-18481	-20346	1268	-2254.68	-2482.21	154.696
5.34082e+07	-16610	-20090	5587	-2026.42	-2450.98	681.614
5.34285e+07	-12697	-15475	10290	-1549.03	-1887.95	1255.38
5.34488e+07	-8160	-12077	10441	-995.52	-1473.39	1273.8
5.34692e+07	-5372	-12383	8019	-655.384	-1510.73	978.318
5.34895e+07	-4070	-12669	5841	-496.54	-1545.62	712.602
5.35098e+07	-2776	-11727	4653	-338.672	-1430.69	567.666
5.35301e+07	-1068	-9356	4381	-130.296	-1141.43	534.482
5.35504e+07	951	-6252	4284	116.022	-762.744	522.648
5.35707e+07	3297	-3933	3778	402.234	-479.826	460.916
5.35911e+07	4433	-2918	2958	540.826	-355.996	360.876
5.36114e+07	4308	-2539	2539	525.576	-309.758	309.758
5.36317e+07	4176	-2054	2397	509.472	-250.588	292.434
5.3652e+07	4530	-1573	2292	552.66	-191.906	279.624
5.36723e+07	4552	-1492	2055	555.344	-182.024	250.71
5.36926e+07	3881	-2079	1142	473.482	-253.638	139.324
5.3713e+07	3402	-3310	1057	415.044	-403.82	128.954
5.37333e+07	2868	-7281	2002	349.896	-888.282	244.244
5.37536e+07	3539	-17060	2070	431.758	-2081.32	252.54
5.37739e+07	-2063	-29510	1344	-251.686	-3600.22	163.968
5.37942e+07	-8169	-32500	1844	-996.618	-3965	224.968
5.38146e+07	-10640	-26898	2187	-1298.08	-3281.56	266.814
5.38349e+07	-12011	-20817	2337	-1465.34	-2539.67	285.114
5.38552e+07	-12015	-14937	2218	-1465.83	-1822.31	270.596
5.38755e+07	-10979	-9084	1710	-1339.44	-1108.25	208.62
5.38958e+07	-9291	-3525	1224	-1133.5	-430.05	149.328
5.39161e+07	-7270	948	1044	-886.94	115.656	127.368
5.39365e+07	-6285	3336	314	-766.77	406.992	38.308
5.39568e+07	-5762	3769	253	-702.964	459.818	30.866
5.39771e+07	-5021	3594	336	-612.562	438.468	40.992
5.39974e+07	-4755	3599	-401	-580.11	439.078	-48.922
5.40177e+07	-5013	3856	-969	-611.586	470.432	-118.218
5.4038e+07	-5498	3747	-1528	-670.756	457.134	-186.416
5.40584e+07	-7022	3131	-898	-856.684	381.982	-109.556
5.40787e+07	-10804	1060	-475	-1318.09	129.32	-57.95
5.4099e+07	-16251	-2025	-1291	-1982.62	-247.05	-157.502
5.41193e+07	-20368	-8586	-560	-2484.9	-1047.49	-68.32
5.41396e+07	-19688	-19570	-17	-2401.94	-2387.54	-2.074
5.41599e+07	-15608	-22612	539	-1904.18	-2758.66	65.758
5.41803e+07	-12009	-21050	-50	-1465.1	-2568.1	-6.1
5.42006e+07	-8890	-21145	-828	-1084.58	-2579.69	-101.016
5.42209e+07	-5363	-20094	-429	-654.286	-2451.47	-52.338
5.42412e+07	-2020	-17530	818	-246.44	-2138.66	99.796
5.42615e+07	-346	-13924	1580	-42.212	-1698.73	192.76
5.42819e+07	649	-11466	1136	79.178	-1398.85	138.592
5.43022e+07	1759	-9397	982	214.598	-1146.43	119.804
5.43225e+07	3000	-7376	1299	366	-899.872	158.478
5.43428e+07	4315	-5374	1712	526.43	-655.628	208.864
5.43631e+07	5105	-3844	2045	622.81	-468.968	249.49
5.43834e+07	4948	-3383	2049	603.656	-412.726	249.978
5.44038e+07	3607	-3962	2213	440.054	-483.364	269.986
5.44241e+07	2227	-4731	1897	271.694	-577.182	231.434
5.44444e+07	1961	-5697	1050	239.242	-695.034	128.1
5.44647e+07	2631	-9924	293	320.982	-1210.73	35.746
5.4485e+07	2561	-18941	1810	312.442	-2310.8	220.82
5.45053e+07	-2560	-26152	3353	-312.32	-3190.54	409.066
5.45257e+07	-11798	-28231	1770	-1439.36	-3444.18	215.94
5.4546e+07	-15749	-25658	2718	-1921.38	-3130.28	331.596
5.45663e+07	-13806	-16614	2460	-1684.33	-2026.91	300.12
5.45866e+07	-12447	-8824	2103	-1518.53	-1076.53	256.566
5.46069e+07	-11769	-4054	1980	-1435.82	-494.588	241.56
5.46272e+07	-9367	-2469	1752	-1142.77	-301.218	213.744
5.46476e+07	-8289	-1343	1078	-1011.26	-163.846	131.516
5.46679e+07	-7626	725	-84	-930.372	88.45	-10.248
5.46882e+07	-6790	3125	-1516	-828.38	381.25	-184.952
5.47085e+07	-5646	5214	-2124	-688.812	636.108	-259.128
5.47288e+07	-4629	5894	-1808	-564.738	719.068	-220.576
5.47491e+07	-4553	4448	-1233	-555.466	542.656	-150.426
5.47695e+07	-5127	2287	-1016	-625.494	279.014	-123.952
5.47898e+07	-6604	1123	-117	-805.688	137.006	-14.274
5.48101e+07	-9672	-1662	2445	-1179.98	-202.764	298.29
5.48304e+07	-13528	-11328	3732	-1650.42	-1382.02	455.304
5.48507e+07	-15418	-21610	2467	-1881	-2636.42	300.974
5.4871e+07	-12477	-20781	5623	-1522.19	-2535.28	686.006
5.48914e+07	-10007	-17637	8453	-1220.85	-2151.71	1031.27
5.49117e+07	-7274	-14577	8000	-887.428	-1778.39	976
5.4932e+07	-4805	-12695	6401	-586.21	-1548.79	780.922
5.49523e+07	-2786	-10905	5067	-339.892	-1330.41	618.174
5.49726e+07	-1521	-8835	4312	-185.562	-1077.87	526.064
5.49929e+07	-411	-7593	3665	-50.142	-926.346	447.13
5.50133e+07	1271	-6085	2811	155.062	-742.37	342.942
5.50336e+07	3325	-4395	1798	405.65	-536.19	219.356
5.50539e+07	6034	-4004	1395	736.148	-488.488	170.19
5.50742e+07	9354	-5207	2122	1141.19	-635.254	258.884
5.50945e+07	9272	-6037	2960	1131.18	-736.514	361.12
5.51148e+07	6577	-5090	2961	802.394	-620.98	361.242
5.51352e+07	5314	-5245	2271	648.308	-639.89	277.062
5.51555e+07	4301	-7771	1830	524.722	-948.062	223.26
5.51758e+07	2488	-13011	2949	303.536	-1587.34	359.778
5.51961e+07	-1178	-23514	5587	-143.716	-2868.71	681.614
5.52164e+07	-7021	-30470	6460	-856.562	-3717.34	788.12
5.52367e+07	-18389	-28432	5240	-2243.46	-3468.7	639.28
5.52571e+07	-16441	-21228	4798	-2005.8	-2589.82	585.356
5.52774e+07	-14087	-12713	3933	-1718.61	-1550.99	479.826
5.52977e+07	-12833	-9511	3036	-1565.63	-1160.34	370.392
5.5318e+07	-10954	-5469	2020	-1336.39	-667.218	246.44
5.53383e+07	-8801	-1945	1274	-1073.72	-237.29	155.428
5.53586e+07	-7331	733	303	-894.382	89.426	36.966
5.5379e+07	-6497	2472	-954	-792.634	301.584	-116.388
5.53993e+07	-5889	3789	-1857	-718.458	462.258	-226.554
5.54196e+07	-5388	4882	-2391	-657.336	595.604	-291.702
5.54399e+07	-5369	4526	-1894	-655.018	552.172	-231.068
5.54602e+07	-5984	2205	-1792	-730.048	269.01	-218.624
5.54805e+07	-6332	230	-1967	-772.504	28.06	-239.974
5.55009e+07	-6885	-501	-1667	-839.97	-61.122	-203.374
5.55212e+07	-8739	-3142	389	-1066.16	-383.324	47.458
5.55415e+07	-11107	-10988	1611	-1355.05	-1340.54	196.542
5.55618e+07	-11185	-18070	821	-1364.57	-2204.54	100.162
5.55821e+07	-10486	-17241	1527	-1279.29	-2103.4	186.294
5.56024e+07	-9044	-18770	2915	-1103.37	-2289.94	355.63
5.56228e+07	-6872	-19475	2709	-838.384	-2375.95	330.498
5.56431e+07	-4603	-18922	3671	-561.566	-2308.48	447.862
5.56634e+07	-2283	-16716	4441	-278.526	-2039.35	541.802
5.56837e+07	-77	-13527	4492	-9.394	-1650.29	548.024
5.5704e+07	1586	-10873	4432	193.492	-1326.51	540.704
5.57243e+07	4540	-9609	4511	553.88	-1172.3	550.342
5.57447e+07	6412	-8297	4236	782.264	-1012.23	516.792
5.5765e+07	5810	-7117	4357	708.82	-868.274	531.554
5.57853e+07	4685	-6118	4953	571.57	-746.396	604.266
5.58056e+07	4199	-5243	5532	512.278	-639.646	674.904
5.58259e+07	3764	-4753	4911	459.208	-579.866	599.142
5.58462e+07	2557	-4229	4392	311.954	-515.938	535.824
5.58666e+07	839	-4280	3908	102.358	-522.16	476.776
5.58869e+07	-399	-5565	3473	-48.678	-678.93	423.706
5.59072e+07	-690	-13401	5004	-84.18	-1634.92	610.488
5.59275e+07	-2251	-25801	4839	-274.622	-3147.72	590.358
5.59478e+07	-8272	-27470	4503	-1009.18	-3351.34	549.366
5.59681e+07	-12642	-24962	3647	-1542.32	-3045.36	444.934
5.59885e+07	-13693	-17428	1907	-1670.55	-2126.22	232.654
5.60088e+07	-11191	-11162	763	-1365.3	-1361.76	93.086
5.60291e+07	-8614	-6215	-222	-1050.91	-758.23	-27.084
5.60494e+07	-6241	-1806	-62	-761.402	-220.332	-7.564
5.60697e+07	-4457	768	185	-543.754	93.696	22.57
5.60901e+07	-4606	156	-292	-561.932	19.032	-35.624
5.61104e+07	-5200	41	-1561	-634.4	5.002	-190.442
5.61307e+07	-5209	2305	-2048	-635.498	281.21	-249.856
5.6151e+07	-5328	3969	-2089	-650.016	484.218	-254.858
5.61713e+07	-5552	3862	-1579	-677.344	471.164	-192.638
5.61916e+07	-5132	2712	-1351	-626.104	330.864	-164.822
5.6212e+07	-4811	1976	-852	-586.942	241.072	-103.944
5.62323e+07	-6052	1264	-122	-738.344	154.208	-14.884
5.62526e+07	-9417	-605	163	-1148.87	-73.81	19.886
5.62729e+07	-14829	-6987	1033	-1809.14	-852.414	126.026
5.62932e+07	-19235	-19981	1457	-2346.67	-2437.68	177.754
5.63136e+07	-16245	-22521	2516	-1981.89	-2747.56	306.952
5.63339e+07	-14917	-21962	2693	-1819.87	-2679.36	328.546
5.63542e+07	-10924	-20836	2801	-1332.73	-2541.99	341.722
5.63745e+07	-6533	-18014	3259	-797.026	-2197.71	397.598
5.63948e+07	-3398	-14747	3200	-414.556	-1799.13	390.4
5.64151e+07	-1624	-11861	2711	-198.128	-1447.04	330.742
5.64355e+07	-285	-10091	2551	-34.77	-1231.1	311.222
5.64558e+07	1283	-8756	2981	156.526	-1068.23	363.682
5.64761e+07	3709	-7918	2923	452.498	-965.996	356.606
5.64964e+07	6623	-7524	2392	808.006	-917.928	291.824
5.65167e+07	8541	-6869	2619	1042	-838.018	319.518
5.6537e+07	8277	-6174	2856	1009.79	-753.228	348.432
5.65574e+07	6013	-5755	2836	733.586	-702.11	345.992
5.65777e+07	4342	-5774	2668	529.724	-704.428	325.496
5.6598e+07	3244	-6315	2192	395.768	-770.43	267.424
5.66183e+07	2002	-8341	1685	244.244	-1017.6	205.57
5.66386e+07	541	-13510	2553	66.002	-1648.22	311.466
5.66589e+07	-1049	-20619	4130	-127.978	-2515.52	503.86
5.66793e+07	-4456	-24494	4086	-543.632	-2988.27	498.492
5.66996e+07	-11468	-26081	2305	-1399.1	-3181.88	281.21
5.67199e+07	-14812	-22514	2410	-1807.06	-2746.71	294.02
5.67402e+07	-13375	-14119	2670	-1631.75	-1722.52	325.74
5.67605e+07	-11443	-8782	2019	-1396.05	-1071.4	246.318
5.67808e+07	-9995	-4754	821	-1219.39	-579.988	100.162
5.68012e+07	-7732	-1633	470	-943.304	-199.226	57.34
5.68215e+07	-6139	186	104	-748.958	22.692	12.688
5.68418e+07	-5875	1073	-949	-716.75	130.906	-115.778
5.68621e+07	-5589	1930	-1525	-681.858	235.46	-186.05
5.68824e+07	-4630	2520	-1601	-564.86	307.44	-195.322
5.69027e+07	-3826	2796	-1610	-466.772	341.112	-196.42
5.69231e+07	-3907	2950	-1240	-476.654	359.9	-151.28
5.69434e+07	-4239	2478	-1148	-517.158	302.316	-140.056
5.69637e+07	-4873	1844	-643	-594.506	224.968	-78.446
5.6984e+07	-6749	1515	-108	-823.378	184.83	-13.176
5.70043e+07	-10618	363	57	-1295.4	44.286	6.954
5.70247e+07	-16869	-4871	-603	-2058.02	-594.262	-73.566
5.7045e+07	-22078	-17241	-2250	-2693.52	-2103.4	-274.5
5.70653e+07	-18165	-27196	-2428	-2216.13	-3317.91	-296.216
5.70856e+07	-13847	-23231	-1877	-1689.33	-2834.18	-228.994
5.71059e+07	-10174	-19721	857	-1241.23	-2405.96	104.554
5.71262e+07	-5869	-17433	1162	-716.018	-2126.83	141.764
5.71466e+07	-3302	-14048	798	-402.844	-1713.86	97.356
5.71669e+07	-2029	-11173	320	-247.538	-1363.11	39.04
5.71872e+07	-505	-9428	352	-61.61	-1150.22	42.944
5.72075e+07	1403	-7804	886	171.166	-952.088	108.092
5.72278e+07	3728	-6091	1431	454.816	-743.102	174.582
5.72481e+07	6341	-4661	1554	773.602	-568.642	189.588
5.72685e+07	7706	-4459	1263	940.132	-543.998	154.086
5.72888e+07	6186	-5638	948	754.692	-687.836	115.656
5.73091e+07	3829	-6308	99	467.138	-769.576	12.078
5.73294e+07	2536	-6756	-399	309.392	-824.232	-48.678
5.73497e+07	1192	-9459	-412	145.424	-1154	-50.264
5.737e+07	-826	-16213	-529	-100.772	-1977.99	-64.538
5.73904e+07	-5648	-22800	137	-689.056	-2781.6	16.714
5.74107e+07	-11567	-26235	764	-1411.17	-3200.67	93.208
5.7431e+07	-14465	-24034	476	-1764.73	-2932.15	58.072
5.74513e+07	-14868	-18357	640	-1813.9	-2239.55	78.08
5.74716e+07	-13313	-13412	1504	-1624.19	-1636.26	183.488
5.7492e+07	-11999	-9529	1126	-1463.88	-1162.54	137.372
5.75123e+07	-10603	-5603	781	-1293.57	-683.566	95.282
5.75326e+07	-8605	-1437	777	-1049.81	-175.314	94.794
5.75529e+07	-6868	2318	323	-837.896	282.796	39.406
5.75732e+07	-5874	4641	-747	-716.628	566.202	-91.134
5.75935e+07	-5470	5684	-1555	-667.34	693.448	-189.71
5.76139e+07	-5165	6060	-2158	-630.13	739.32	-263.276
5.76342e+07	-4975	5395	-2069	-606.95	658.19	-252.418
5.76545e+07	-4911	3452	-1551	-599.142	421.144	-189.222
5.76748e+07	-5040	1612	-986	-614.88	196.664	-120.292
5.76951e+07	-6090	414	-710	-742.98	50.508	-86.62
5.77154e+07	-9274	-1984	-47	-1131.43	-242.048	-5.734
5.77358e+07	-13030	-10653	1151	-1589.66	-1299.67	140.422
5.77561e+07	-14313	-22177	-461	-1746.19	-2705.59	-56.242
5.77764e+07	-11949	-19550	213	-1457.78	-2385.1	25.986
5.77967e+07	-11338	-15775	3423	-1383.24	-1924.55	417.606
5.7817e+07	-9293	-16654	3054	-1133.75	-2031.79	372.588
5.78373e+07	-6739	-16324	2104	-822.158	-1991.53	256.688
5.78577e+07	-3906	-14739	2064	-476.532	-1798.16	251.808
5.7878e+07	-1846	-12486	2763	-225.212	-1523.29	337.086
5.78983e+07	-244	-9683	3478	-29.768	-1181.33	424.316
5.79186e+07	640	-7748	2915	78.08	-945.256	355.63
5.79389e+07	1563	-7109	1748	190.686	-867.298	213.256
5.79593e+07	3381	-6416	1034	412.482	-782.752	126.148
5.79796e+07	5547	-5430	1048	676.734	-662.46	127.856
5.79999e+07	6894	-5248	1347	841.068	-640.256	164.334
5.80202e+07	6322	-6307	1337	771.284	-769.454	163.114
5.80405e+07	4264	-6983	1328	520.208	-851.926	162.016
5.80608e+07	2744	-7984	1757	334.768	-974.048	214.354
5.80812e+07	1199	-11134	1499	146.278	-1358.35	182.878
5.81015e+07	-405	-16155	1690	-49.41	-1970.91	206.18
5.81218e+07	-2461	-21339	2748	-300.242	-2603.36	335.256
5.81421e+07	-8740	-27222	2842	-1066.28	-3321.08	346.724
5.81624e+07	-16168	-26601	1594	-1972.5	-3245.32	194.468
5.81828e+07	-15896	-18377	2405	-1939.31	-2241.99	293.41
5.82031e+07	-13454	-12685	2696	-1641.39	-1547.57	328.912
5.82234e+07	-12417	-9090	1421	-1514.87	-1108.98	173.362
5.82437e+07	-10745	-5681	386	-1310.89	-693.082	47.092
5.8264e+07	-8478	-2863	58	-1034.32	-349.286	7.076
5.82843e+07	-7026	-2	-151	-857.172	-0.244	-18.422
5.83047e+07	-6581	2415	-1346	-802.882	294.63	-164.212
5.8325e+07	-6409	4567	-1931	-781.898	557.174	-235.582
5.83453e+07	-5507	5950	-2112	-671.854	725.9	-257.664
5.83656e+07	-4542	5638	-2067	-554.124	687.836	-252.174
5.83859e+07	-4703	3829	-1937	-573.766	467.138	-236.314
5.84062e+07	-5673	1965	-784	-692.106	239.73	-95.648
5.84266e+07	-6984	769	-829	-852.048	93.818	-101.138
5.84469e+07	-9368	-626	-842	-1142.9	-76.372	-102.724
5.84672e+07	-12885	-6807	881	-1571.97	-830.454	107.482
5.84875e+07	-16533	-17051	676	-2017.03	-2080.22	82.472
5.85078e+07	-15494	-21267	1639	-1890.27	-2594.57	199.958
5.85282e+07	-12842	-20619	3805	-1566.72	-2515.52	464.21
5.85485e+07	-9875	-20449	3997	-1204.75	-2494.78	487.634
5.85688e+07	-6392	-17891	4325	-779.824	-2182.7	527.65
5.85891e+07	-4108	-14261	4837	-501.176	-1739.84	590.114
5.86094e+07	-2592	-11351	4864	-316.224	-1384.82	593.408
5.86297e+07	-1176	-9011	4046	-143.472	-1099.34	493.612
5.86501e+07	481	-7377	3171	58.682	-899.994	386.862
5.86704e+07	2307	-6114	2442	281.454	-745.908	297.924
5.86907e+07	4765	-5153	2159	581.33	-628.666	263.398
5.8711e+07	6644	-4468	1423	810.568	-545.096	173.606
5.87313e+07	6374	-4098	1125	777.628	-499.956	137.25
5.87517e+07	5197	-3992	785	634.034	-487.024	95.77
5.8772e+07	4436	-4179	764	541.192	-509.838	93.208
5.87923e+07	3844	-5556	1451	468.968	-677.832	177.022
5.88126e+07	2792	-10165	2188	340.624	-1240.13	266.936
5.88329e+07	953	-18200	3186	116.266	-2220.4	388.692
5.88532e+07	-1920	-25123	4913	-234.24	-3065.01	599.386
5.88736e+07	-7913	-25146	5416	-965.386	-3067.81	660.752
5.88939e+07	-17666	-23301	4069	-2155.25	-2842.72	496.418
5.89142e+07	-14131	-16542	4791	-1723.98	-2018.12	584.502
5.89345e+07	-12822	-11360	4335	-1564.28	-1385.92	528.87
5.89548e+07	-12782	-7609	3117	-1559.4	-928.298	380.274
5.89752e+07	-10979	-3499	1850	-1339.44	-426.878	225.7
5.89955e+07	-8864	-452	579	-1081.41	-55.144	70.638
5.90158e+07	-7271	2610	-573	-887.062	318.42	-69.906
5.90361e+07	-5871	4891	-1264	-716.262	596.702	-154.208
5.90564e+07	-4911	5775	-1856	-599.142	704.55	-226.432
5.90767e+07	-4685	4957	-2128	-571.57	604.754	-259.616
5.90971e+07	-5143	2640	-2392	-627.446	322.08	-291.824
5.91174e+07	-5387	955	-1838	-657.214	116.51	-224.236
5.91377e+07	-5667	861	-1301	-691.374	105.042	-158.722
5.9158e+07	-7131	180	-484	-869.982	21.96	-59.048
5.91783e+07	-11952	-3117	-492	-1458.14	-380.274	-60.024
5.91986e+07	-17254	-10490	-257	-2104.99	-1279.78	-31.354
5.9219e+07	-17496	-18365	380	-2134.51	-2240.53	46.36
5.92393e+07	-15482	-18957	655	-1888.8	-2312.75	79.91
5.92596e+07	-14244	-17851	1053	-1737.77	-2177.82	128.466
5.92799e+07	-11307	-17582	1140	-1379.45	-2145	139.08
5.93002e+07	-7808	-16880	1331	-952.576	-2059.36	162.382
5.93206e+07	-4847	-15409	1996	-591.334	-1879.9	243.512
5.93409e+07	-2718	-13217	2110	-331.596	-1612.47	257.42
5.93612e+07	-1007	-10847	1959	-122.854	-1323.33	238.998
5.93815e+07	394	-8359	1816	48.068	-1019.8	221.552
5.94018e+07	2457	-6790	2199	299.754	-828.38	268.278
5.94221e+07	5116	-6284	2708	624.152	-766.648	330.376
5.94425e+07	6836	-6199	3300	833.992	-756.278	402.6
5.94628e+07	7450	-6252	3454	908.9	-762.744	421.388
5.94831e+07	6157	-6337	3558	751.154	-773.114	434.076
5.95034e+07	3620	-6501	3305	441.64	-793.122	403.21
5.95237e+07	1666	-7170	3095	203.252	-874.74	377.59
5.95441e+07	-73	-9194	3151	-8.906	-1121.67	384.422
5.95644e+07	-1451	-13659	4226	-177.022	-1666.4	515.572
5.95847e+07	-3463	-19671	4273	-422.486	-2399.86	521.306
5.9605e+07	-7397	-24029	4499	-902.434	-2931.54	548.878
5.96253e+07	-13948	-24669	3227	-1701.66	-3009.62	393.694
5.96456e+07	-14990	-18430	3649	-1828.78	-2248.46	445.178
5.9666e+07	-12649	-11728	3328	-1543.18	-1430.82	406.016
5.96863e+07	-11587	-7183	1409	-1413.61	-876.326	171.898
5.97066e+07	-9520	-3464	775	-1161.44	-422.608	94.55
5.97269e+07	-7331	-956	766	-894.382	-116.632	93.452
5.97472e+07	-6849	604	-73	-835.578	73.688	-8.906
5.97675e+07	-6532	1667	-1384	-796.904	203.374	-168.848
5.97879e+07	-5988	3166	-2070	-730.536	386.252	-252.54
5.98082e+07	-5497	4356	-1623	-670.634	531.432	-198.006
5.98285e+07	-5412	4126	-1221	-660.264	503.372	-148.962
5.98488e+07	-6130	2899	-1455	-747.86	353.678	-177.51
5.98691e+07	-7701	2353	-1289	-939.522	287.066	-157.258
5.98894e+07	-9933	878	451	-1211.83	107.116	55.022
5.99098e+07	-13582	-3569	1361	-1657	-435.418	166.042
5.99301e+07	-17685	-11589	1036	-2157.57	-1413.86	126.392
5.99504e+07	-17282	-17845	2319	-2108.4	-2177.09	282.918
5.99707e+07	-14145	-17391	3884	-1725.69	-2121.7	473.848
5.9991e+07	-12638	-17333	3143	-1541.84	-2114.63	383.446
6.00114e+07	-9643	-18758	1978	-1176.45	-2288.48	241.316
6.00317e+07	-6302	-18644	1436	-768.844	-2274.57	175.192
6.0052e+07	-3583	-15827	1364	-437.126	-1930.89	166.408
6.00723e+07	-1726	-12833	1535	-210.572	-1565.63	187.27
6.00926e+07	-433	-10588	1549	-52.826	-1291.74	188.978
6.01129e+07	978	-8743	1684	119.316	-1066.65	205.448
6.01333e+07	2560	-6859	1415	312.32	-836.798	172.63
6.01536e+07	3908	-4823	1254	476.776	-588.406	152.988
6.01739e+07	4776	-3354	1455	582.672	-409.188	177.51
6.01942e+07	4734	-3443	1725	577.548	-420.046	210.45
6.02145e+07	4187	-3909	1839	510.814	-476.898	224.358
6.02348e+07	4227	-3731	1733	515.694	-455.182	211.426
6.02552e+07	4080	-4223	1604	497.76	-515.206	195.688
6.02755e+07	3374	-7337	2412	411.628	-895.114	294.264
6.02958e+07	2136	-13468	4057	260.592	-1643.1	494.954
6.03161e+07	-345	-21447	6612	-42.09	-2616.53	806.664
6.03364e+07	-8861	-29788	7339	-1081.04	-3634.14	895.358
6.03567e+07	-23138	-26158	4296	-2822.84	-3191.28	524.112
6.03771e+07	-17869	-14123	4789	-2180.02	-1723.01	584.258
6.03974e+07	-12106	-7212	4547	-1476.93	-879.864	554.734
6.04177e+07	-10063	-6531	3172	-1227.69	-796.782	386.984
6.0438e+07	-8377	-6066	1264	-1021.99	-740.052	154.208
6.04583e+07	-7028	-3668	-160	-857.416	-447.496	-19.52
6.04786e+07	-6015	-66	-1471	-733.83	-8.052	-179.462
6.0499e+07	-5149	3271	-2724	-628.178	399.062	-332.328
6.05193e+07	-4812	5732	-3474	-587.064	699.304	-423.828
6.05396e+07	-4746	6377	-3581	-579.012	777.994	-436.882
6.05599e+07	-4851	4529	-2960	-591.822	552.538	-361.12
6.05802e+07	-4871	2263	-1887	-594.262	276.086	-230.214
6.06005e+07	-5589	1413	185	-681.858	172.386	22.57
6.06209e+07	-8021	548	360	-978.562	66.856	43.92
6.06412e+07	-13293	-3675	-1675	-1621.75	-448.35	-204.35
6.06615e+07	-17900	-14005	-2161	-2183.8	-1708.61	-263.642
6.06818e+07	-14347	-17149	841	-1750.33	-2092.18	102.602
6.07021e+07	-11441	-15113	3692	-1395.8	-1843.79	450.424
6.07224e+07	-10788	-17649	3061	-1316.14	-2153.18	373.442
6.07428e+07	-7686	-18381	2103	-937.692	-2242.48	256.566
6.07631e+07	-4528	-17366	2033	-552.416	-2118.65	248.026
6.07834e+07	-2397	-14848	2292	-292.434	-1811.46	279.624
6.08037e+07	-1153	-12556	2416	-140.666	-1531.83	294.752
6.0824e+07	182	-10677	2135	22.204	-1302.59	260.47
6.08443e+07	1725	-8500	2177	210.45	-1037	265.594
6.08647e+07	3434	-6649	2102	418.948	-811.178	256.444
6.0885e+07	5472	-5465	2087	667.584	-666.73	254.614
6.09053e+07	6766	-5185	1761	825.452	-632.57	214.842
6.09256e+07	5680	-5541	1258	692.96	-676.002	153.476
6.09459e+07	3675	-6062	973	448.35	-739.564	118.706
6.09662e+07	2253	-7079	775	274.866	-863.638	94.55
6.09866e+07	1508	-10028	592	183.976	-1223.42	72.224
6.10069e+07	659	-16785	1192	80.398	-2047.77	145.424
6.10272e+07	-2354	-24166	2164	-287.188	-2948.25	264.008
6.10475e+07	-13662	-24589	449	-1666.76	-2999.86	54.778
6.10678e+07	-16855	-23942	2507	-2056.31	-2920.92	305.854
6.10881e+07	-15598	-16186	2199	-1902.96	-1974.69	268.278
6.11085e+07	-13948	-10874	1978	-1701.66	-1326.63	241.316
6.11288e+07	-11171	-6521	1128	-1362.86	-795.562	137.616
6.11491e+07	-8345	-2743	69	-1018.09	-334.646	8.418
6.11694e+07	-6240	639	-41	-761.28	77.958	-5.002
6.11897e+07	-4914	3035	-262	-599.508	370.27	-31.964
6.121e+07	-4376	3894	-898	-533.872	475.068	-109.556
6.12303e+07	-4417	4438	-1497	-538.874	541.436	-182.634
6.12507e+07	-4476	4490	-2087	-546.072	547.78	-254.614
6.1271e+07	-4704	3741	-2183	-573.888	456.402	-266.326
6.12913e+07	-4965	2810	-1191	-605.73	342.82	-145.302
6.13116e+07	-5332	2155	-337	-650.504	262.91	-41.114
6.13319e+07	-7782	1031	-422	-949.404	125.782	-51.484
6.13523e+07	-12545	-3595	-21	-1530.49	-438.59	-2.562
6.13726e+07	-17713	-13803	-293	-2160.99	-1683.97	-35.746
6.13929e+07	-18019	-20954	837	-2198.32	-2556.39	102.114
6.14132e+07	-14141	-19637	2159	-1725.2	-2395.71	263.398
6.14335e+07	-10803	-20605	1164	-1317.97	-2513.81	142.008
6.14538e+07	-7044	-17927	416	-859.368	-2187.09	50.752
6.14742e+07	-4251	-15929	805	-518.622	-1943.34	98.21
6.14945e+07	-2037	-12842	1964	-248.514	-1566.72	239.608
6.15148e+07	-697	-9201	2632	-85.034	-1122.52	321.104
6.15351e+07	437	-7355	2622	53.314	-897.31	319.884
6.15554e+07	1245	-6881	2293	151.89	-839.482	279.746
6.15758e+07	1841	-6447	2379	224.602	-786.534	290.238
6.15961e+07	2686	-5348	2569	327.692	-652.456	313.418
6.16164e+07	3707	-4074	2728	452.254	-497.028	332.816
6.16367e+07	4718	-2912	2936	575.596	-355.264	358.192
6.1657e+07	5128	-2628	2502	625.616	-320.616	305.244
6.16773e+07	4547	-2862	2054	554.734	-349.164	250.588
6.16977e+07	4009	-3673	1706	489.098	-448.106	208.132
6.1718e+07	3732	-6862	1154	455.304	-837.164	140.788
6.17383e+07	3474	-14350	259	423.828	-1750.7	31.598
6.17586e+07	1736	-26050	994	211.792	-3178.1	121.268
6.17789e+07	-3169	-32464	1037	-386.618	-3960.61	126.514
6.17992e+07	-15580	-28146	-1891	-1900.76	-3433.81	-230.702
6.18196e+07	-16794	-24188	1252	-2048.87	-2950.94	152.744
6.18399e+07	-13056	-13735	1420	-1592.83	-1675.67	173.24
6.18602e+07	-11971	-8334	730	-1460.46	-1016.75	89.06
6.18805e+07	-11013	-3736	-86	-1343.59	-455.792	-10.492
6.19008e+07	-8961	133	-437	-1093.24	16.226	-53.314
6.19211e+07	-7656	2685	-786	-934.032	327.57	-95.892
6.19414e+07	-6775	4463	-1610	-826.55	544.486	-196.42
6.19618e+07	-5627	5222	-2022	-686.494	637.084	-246.684
6.19821e+07	-5050	5305	-2187	-616.1	647.21	-266.814
6.20024e+07	-5255	4447	-2293	-641.11	542.534	-279.746
6.20227e+07	-5550	2817	-2253	-677.1	343.674	-274.866
6.2043e+07	-6032	1806	-1175	-735.904	220.332	-143.35
6.20634e+07	-7673	701	120	-936.106	85.522	14.64
6.20837e+07	-11084	-2388	68	-1352.25	-291.336	8.296
6.2104e+07	-14345	-7946	-570	-1750.09	-969.412	-69.54
6.21243e+07	-16077	-14376	351	-1961.39	-1753.87	42.822
6.21446e+07	-15575	-20573	1158	-1900.15	-2509.91	141.276
6.21649e+07	-13549	-19604	409	-1652.98	-2391.69	49.898
6.21852e+07	-12124	-16242	1973	-1479.13	-1981.52	240.706
6.22056e+07	-9167	-17186	3642	-1118.37	-2096.69	444.324
6.22259e+07	-6609	-15587	3585	-806.298	-1901.61	437.37
6.22462e+07	-5039	-12935	3389	-614.758	-1578.07	413.458
6.22665e+07	-3363	-11300	3227	-410.286	-1378.6	393.694
6.22868e+07	-1440	-9160	3466	-175.68	-1117.52	422.852
6.23071e+07	90	-6620	3679	10.98	-807.64	448.838
6.23275e+07	1874	-5069	3580	228.628	-618.418	436.76
6.23478e+07	3774	-4608	3395	460.428	-562.176	414.19
6.23681e+07	4223	-4718	3161	515.206	-575.596	385.642
6.23884e+07	3677	-4637	2783	448.594	-565.714	339.526
6.24087e+07	3228	-4306	2394	393.816	-525.332	292.068
6.2429e+07	2432	-4849	1848	296.704	-591.578	225.456
6.24493e+07	1746	-7372	1463	213.012	-899.384	178.486
6.24697e+07	983	-12522	2096	119.926	-1527.68	255.712
6.249e+07	-2244	-20320	3493	-273.768	-2479.04	426.146
6.25103e+07	-11266	-25047	2202	-1374.45	-3055.73	268.644
6.25306e+07	-15750	-26083	2620	-1921.5	-3182.13	319.64
6.25509e+07	-16157	-18793	2845	-1971.15	-2292.75	347.09
6.25712e+07	-14315	-11315	3091	-1746.43	-1380.43	377.102
6.25916e+07	-12095	-7159	2113	-1475.59	-873.398	257.786
6.26119e+07	-9017	-4893	1310	-1100.07	-596.946	159.82
6.26322e+07	-6491	-3002	1488	-791.902	-366.244	181.536
6.26525e+07	-5182	-804	1786	-632.204	-98.088	217.892
6.26728e+07	-5195	935	841	-633.79	114.07	102.602
6.26931e+07	-5506	2486	-681	-671.732	303.292	-83.082
6.27135e+07	-5534	4236	-1380	-675.148	516.792	-168.36
6.27338e+07	-5247	5360	-1328	-640.134	653.92	-162.016
6.27541e+07	-5333	4709	-1407	-650.626	574.498	-171.654
6.27744e+07	-5853	2852	-1548	-714.066	347.944	-188.856
6.27947e+07	-6328	1630	-1199	-772.016	198.86	-146.278
6.2815e+07	-7436	901	-437	-907.192	109.922	-53.314
6.28353e+07	-10397	-1886	397	-1268.43	-230.092	48.434
6.28557e+07	-13337	-7709	429	-1627.11	-940.498	52.338
6.2876e+07	-16894	-15056	-1101	-2061.07	-1836.83	-134.322
6.28963e+07	-17234	-19746	841	-2102.55	-2409.01	102.602
6.29166e+07	-13828	-21404	1525	-1687.02	-2611.29	186.05
6.29369e+07	-10981	-18295	1039	-1339.68	-2231.99	126.758
6.29573e+07	-8172	-16684	447	-996.984	-2035.45	54.534
6.29776e+07	-5398	-15363	404	-658.556	-1874.29	49.288
6.29979e+07	-3199	-12597	746	-390.278	-1536.83	91.012
6.30182e+07	-1672	-10092	777	-203.984	-1231.22	94.794
6.30385e+07	-65	-8432	588	-7.93	-1028.7	71.736
6.30588e+07	2160	-7157	822	263.52	-873.154	100.284
6.30792e+07	4519	-6245	1283	551.318	-761.89	156.526
6.30995e+07	6805	-6177	1810	830.21	-753.594	220.82
6.31198e+07	7189	-7266	1832	877.058	-886.452	223.504
6.31401e+07	5158	-8438	1375	629.276	-1029.44	167.75
6.31604e+07	3468	-8068	1209	423.096	-984.296	147.498
6.31807e+07	2569	-8353	1569	313.418	-1019.07	191.418
6.3201e+07	1046	-11055	1420	127.612	-1348.71	173.24
6.32214e+07	-922	-14809	1148	-112.484	-1806.7	140.056
6.32417e+07	-3294	-19224	1820	-401.868	-2345.33	222.04
6.3262e+07	-9529	-21779	2022	-1162.54	-2657.04	246.684
6.32823e+07	-13992	-22268	3333	-1707.02	-2716.7	406.626
6.33026e+07	-15362	-16979	2942	-1874.16	-2071.44	358.924
6.33229e+07	-14532	-10919	2725	-1772.9	-1332.12	332.45
6.33433e+07	-12780	-5529	1984	-1559.16	-674.538	242.048
6.33636e+07	-10374	-1408	1083	-1265.63	-171.776	132.126
6.33839e+07	-8327	636	739	-1015.89	77.592	90.158
6.34042e+07	-7411	1212	227	-904.142	147.864	27.694
6.34245e+07	-6953	1236	-588	-848.266	150.792	-71.736
6.34448e+07	-6185	1756	-1324	-754.57	214.232	-161.528
6.34652e+07	-5545	2676	-1814	-676.49	326.472	-221.308
6.34855e+07	-5296	3082	-1852	-646.112	376.004	-225.944
6.35058e+07	-5459	2449	-1695	-665.998	298.778	-206.79
6.35261e+07	-5190	1337	-893	-633.18	163.114	-108.946
6.35464e+07	-5401	667	-286	-658.922	81.374	-34.892
6.35668e+07	-7838	-1439	-432	-956.236	-175.558	-52.704
6.35871e+07	-11570	-5813	-1673	-1411.54	-709.186	-204.106
6.36074e+07	-15571	-12450	-2001	-1899.66	-1518.9	-244.122
6.36277e+07	-15935	-18626	478	-1944.07	-2272.37	58.316
6.3648e+07	-14020	-19374	178	-1710.44	-2363.63	21.716
6.36683e+07	-13267	-17428	-363	-1618.57	-2126.22	-44.286
6.36887e+07	-10479	-18183	-238	-1278.44	-2218.33	-29.036
6.3709e+07	-6692	-17239	545	-816.424	-2103.16	66.49
6.37293e+07	-4201	-13777	1033	-512.522	-1680.79	126.026
6.37496e+07	-2742	-11096	1105	-334.524	-1353.71	134.81
6.37699e+07	-1304	-9463	1203	-159.088	-1154.49	146.766
6.37902e+07	116	-8051	1428	14.152	-982.222	174.216
6.38106e+07	2305	-6755	1722	281.21	-824.11	210.084
6.38309e+07	6160	-5794	1661	751.52	-706.868	202.642
6.38512e+07	10245	-5467	1201	1249.89	-666.974	146.522
6.38715e+07	10066	-6010	1249	1228.05	-733.22	152.378
6.38918e+07	6401	-7041	682	780.922	-859.002	83.204
6.39121e+07	4479	-8216	-29	546.438	-1002.35	-3.538
6.39325e+07	3373	-10363	-497	411.506	-1264.29	-60.634
6.39528e+07	1675	-16230	-1140	204.35	-1980.06	-139.08
6.39731e+07	-625	-24187	-1133	-76.25	-2950.81	-138.226
6.39934e+07	-6756	-27563	160	-824.232	-3362.69	19.52
6.40137e+07	-16584	-29608	289	-2023.25	-3612.18	35.258
6.4034e+07	-18522	-22522	571	-2259.68	-2747.68	69.662
6.40544e+07	-16629	-13356	1145	-2028.74	-1629.43	139.69
6.40747e+07	-14541	-7340	611	-1774	-895.48	74.542
6.4095e+07	-11370	-1895	-479	-1387.14	-231.19	-58.438
6.41153e+07	-8325	1615	-1070	-1015.65	197.03	-130.54
6.41356e+07	-6975	3236	-2278	-850.95	394.792	-277.916
6.4156e+07	-6384	4601	-2683	-778.848	561.322	-327.326
6.41763e+07	-5608	5641	-2307	-684.176	688.202	-281.454
6.41966e+07	-4909	4921	-2207	-598.898	600.362	-269.254
6.42169e+07	-5175	3065	-2322	-631.35	373.93	-283.284
6.42372e+07	-5477	1697	-1869	-668.194	207.034	-228.018
6.42575e+07	-5616	1416	-1172	-685.152	172.752	-142.984
6.42779e+07	-7301	1714	-856	-890.722	209.108	-104.432
6.42982e+07	-11628	437	26	-1418.62	53.314	3.172
6.43185e+07	-16399	-5912	1427	-2000.68	-721.264	174.094
6.43388e+07	-19580	-15991	841	-2388.76	-1950.9	102.602
6.43591e+07	-19142	-19149	2922	-2335.32	-2336.18	356.484
6.43794e+07	-15968	-17370	5995	-1948.1	-2119.14	731.39
6.43998e+07	-12096	-15330	5928	-1475.71	-1870.26	723.216
6.44201e+07	-8797	-15655	4233	-1073.23	-1909.91	516.426
6.44404e+07	-5955	-15667	3356	-726.51	-1911.37	409.432
6.44607e+07	-3881	-13652	3629	-473.482	-1665.54	442.738
6.4481e+07	-2468	-11175	4037	-301.096	-1363.35	492.514
6.45013e+07	-1113	-8449	3947	-135.786	-1030.78	481.534
6.45217e+07	161	-6197	3275	19.642	-756.034	399.55
6.4542e+07	3115	-4754	2425	380.03	-579.988	295.85
6.45623e+07	7730	-3856	1515	943.06	-470.432	184.83
6.45826e+07	10458	-4786	1251	1275.88	-583.892	152.622
6.46029e+07	7635	-6419	1457	931.47	-783.118	177.754
6.46232e+07	4894	-6817	1750	597.068	-831.674	213.5
6.46435e+07	3758	-7390	1552	458.476	-901.58	189.344
6.46639e+07	2167	-10052	1817	264.374	-1226.34	221.674
6.46842e+07	-285	-14601	3332	-34.77	-1781.32	406.504
6.47045e+07	-4495	-20908	7038	-548.39	-2550.78	858.636
6.47248e+07	-16953	-22996	6234	-2068.27	-2805.51	760.548
6.47451e+07	-20172	-18701	7960	-2460.98	-2281.52	971.12
6.47654e+07	-19865	-13604	6010	-2423.53	-1659.69	733.22
6.47858e+07	-18009	-7134	3659	-2197.1	-870.348	446.398
6.48061e+07	-14166	-1046	3273	-1728.25	-127.612	399.306
6.48264e+07	-10411	-1365	3387	-1270.14	-166.53	413.214
6.48467e+07	-8548	-1330	2440	-1042.86	-162.26	297.68
6.4867e+07	-7124	983	889	-869.128	119.926	108.458
6.48873e+07	-6010	1408	-934	-733.22	171.776	-113.948
6.49076e+07	-4899	1775	-1761	-597.678	216.55	-214.842
6.4928e+07	-3956	2794	-2067	-482.632	340.868	-252.174
6.49483e+07	-3506	2944	-2356	-427.732	359.168	-287.432
6.49686e+07	-3395	2520	-2263	-414.19	307.44	-276.086
6.49889e+07	-3808	2561	-1000	-464.576	312.442	-122
6.50092e+07	-4237	2378	-483	-516.914	290.116	-58.926
6.50296e+07	-5912	1875	-613	-721.264	228.75	-74.786
6.50499e+07	-9824	456	11	-1198.53	55.632	1.342
6.50702e+07	-14252	-3641	646	-1738.74	-444.202	78.812
6.50905e+07	-19310	-12101	-2076	-2355.82	-1476.32	-253.272
6.51108e+07	-17967	-20305	-3854	-2191.97	-2477.21	-470.188
6.51311e+07	-13379	-21893	-2634	-1632.24	-2670.95	-321.348
6.51515e+07	-10058	-17830	-1528	-1227.08	-2175.26	-186.416
6.51718e+07	-7918	-15760	-1442	-965.996	-1922.72	-175.924
6.51921e+07	-5538	-14478	-959	-675.636	-1766.32	-116.998
6.52124e+07	-3409	-12153	-1	-415.898	-1482.67	-0.122
6.52327e+07	-1538	-10377	1224	-187.636	-1265.99	149.328
6.5253e+07	81	-9315	2012	9.882	-1136.43	245.464
6.52734e+07	1789	-8228	2661	218.258	-1003.82	324.642
6.52937e+07	3642	-7311	3135	444.324	-891.942	382.47
6.5314e+07	4633	-6466	3258	565.226	-788.852	397.476
6.53343e+07	4808	-5491	3089	586.576	-669.902	376.858
6.53546e+07	4128	-4591	3049	503.616	-560.102	371.978
6.53749e+07	3076	-4191	2100	375.272	-511.302	256.2
6.53953e+07	2586	-4991	1233	315.492	-608.902	150.426
6.54156e+07	2463	-8127	1053	300.486	-991.494	128.466
6.54359e+07	1689	-15796	1386	206.058	-1927.11	169.092
6.54562e+07	-2409	-25536	149	-293.898	-3115.39	18.178
6.54765e+07	-16175	-28039	-4220	-1973.35	-3420.76	-514.84
6.54968e+07	-19813	-23738	-257	-2417.19	-2896.04	-31.354
6.55171e+07	-16257	-14403	1323	-1983.35	-1757.17	161.406
6.55375e+07	-14330	-8736	835	-1748.26	-1065.79	101.87
6.55578e+07	-12577	-3979	-140	-1534.39	-485.438	-17.08
6.55781e+07	-9750	-531	-189	-1189.5	-64.782	-23.058
6.55984e+07	-7990	2493	212	-974.78	304.146	25.864
6.56187e+07	-7242	5031	-4	-883.524	613.782	-0.488
6.5639e+07	-6433	5619	-705	-784.826	685.518	-86.01
6.56594e+07	-5491	5252	-1257	-669.902	640.744	-153.354
6.56797e+07	-5063	4298	-1396	-617.686	524.356	-170.312
6.57e+07	-5287	3019	-1217	-645.014	368.318	-148.474
6.57203e+07	-5243	1808	-499	-639.646	220.576	-60.878
6.57406e+07	-5157	1004	456	-629.154	122.488	55.632
6.5761e+07	-7341	-970	1028	-895.602	-118.34	125.416
6.57813e+07	-12021	-7276	906	-1466.56	-887.672	110.532
6.58016e+07	-15645	-18436	1317	-1908.69	-2249.19	160.674
6.58219e+07	-14632	-22018	3134	-1785.1	-2686.2	382.348
6.58422e+07	-12274	-18601	4368	-1497.43	-2269.32	532.896
6.58625e+07	-9142	-15227	4188	-1115.32	-1857.69	510.936
6.58829e+07	-5661	-14622	3488	-690.642	-1783.88	425.536
6.59032e+07	-3367	-14545	2880	-410.774	-1774.49	351.36
6.59235e+07	-2180	-12873	2789	-265.96	-1570.51	340.258
6.59438e+07	-1399	-10597	2900	-170.678	-1292.83	353.8
6.59641e+07	-561	-8141	2990	-68.442	-993.202	364.78
6.59844e+07	381	-5930	2754	46.482	-723.46	335.988
6.60047e+07	1657	-4403	2586	202.154	-537.166	315.492
6.60251e+07	2963	-3162	2233	361.486	-385.764	272.426
6.60454e+07	4476	-2191	1779	546.072	-267.302	217.038
6.60657e+07	6112	-1748	1275	745.664	-213.256	155.55
6.6086e+07	7655	-1704	998	933.91	-207.888	121.756
6.61063e+07	7795	-2075	1125	950.99	-253.15	137.25
6.61266e+07	6021	-4089	1237	734.562	-498.858	150.914
6.6147e+07	3054	-11520	2412	372.588	-1405.44	294.264
6.61673e+07	-2921	-28663	3684	-356.362	-3496.89	449.448
6.61876e+07	-12912	-30256	-497	-1575.26	-3691.23	-60.634
6.62079e+07	-20853	-26519	3996	-2544.07	-3235.32	487.512
6.62282e+07	-15949	-17741	4217	-1945.78	-2164.4	514.474
6.62485e+07	-12330	-10652	2798	-1504.26	-1299.54	341.356
6.62689e+07	-11297	-9319	1470	-1378.23	-1136.92	179.34
6.62892e+07	-9886	-7322	1256	-1206.09	-893.284	153.232
6.63095e+07	-8180	-3088	1864	-997.96	-376.736	227.408
6.63298e+07	-6277	2074	1300	-765.794	253.028	158.6
6.63501e+07	-5143	5087	-679	-627.446	620.614	-82.838
6.63704e+07	-5065	6122	-1948	-617.93	746.884	-237.656
6.63908e+07	-5402	6547	-2203	-659.044	798.734	-268.766
6.64111e+07	-5529	5046	-1810	-674.538	615.612	-220.82
6.64314e+07	-5443	2593	-1683	-664.046	316.346	-205.326
6.64517e+07	-5490	1456	-994	-669.78	177.632	-121.268
6.6472e+07	-6395	1592	-549	-780.19	194.224	-66.978
6.64923e+07	-9917	1618	-224	-1209.87	197.396	-27.328
6.65127e+07	-14941	-1865	-172	-1822.8	-227.53	-20.984
6.6533e+07	-19561	-9852	-5446	-2386.44	-1201.94	-664.412
6.65533e+07	-20644	-21036	-9738	-2518.57	-2566.39	-1188.04
6.65736e+07	-13559	-29561	-9021	-1654.2	-3606.44	-1100.56
6.65939e+07	-8514	-20530	-6723	-1038.71	-2504.66	-820.206
6.66142e+07	-6211	-14764	-5862	-757.742	-1801.21	-715.164
6.66345e+07	-3587	-12825	-4948	-437.614	-1564.65	-603.656
6.66549e+07	-1765	-10820	-3891	-215.33	-1320.04	-474.702
6.66752e+07	-207	-9359	-2961	-25.254	-1141.8	-361.242
6.66955e+07	1034	-8665	-1911	126.148	-1057.13	-233.142
6.67158e+07	1816	-8026	-1102	221.552	-979.172	-134.444
6.67361e+07	2413	-7145	-475	294.386	-871.69	-57.95
6.67564e+07	2937	-6138	90	358.314	-748.836	10.98
6.67768e+07	3186	-5455	1152	388.692	-665.51	140.544
6.67971e+07	3339	-5338	2079	407.358	-651.236	253.638
6.68174e+07	3848	-5513	2011	469.456	-672.586	245.342
6.68377e+07	3990	-5968	993	486.78	-728.096	121.146
6.6858e+07	3586	-7309	437	437.492	-891.698	53.314
6.68783e+07	3358	-12305	796	409.676	-1501.21	97.112
6.68986e+07	761	-22110	394	92.842	-2697.42	48.068
6.6919e+07	-5196	-27437	-1097	-633.912	-3347.31	-133.834
6.69393e+07	-16334	-24291	-2193	-1992.75	-2963.5	-267.546
6.69596e+07	-16274	-18022	972	-1985.43	-2198.68	118.584
6.69799e+07	-12735	-9538	2551	-1553.67	-1163.64	311.222
6.70002e+07	-11857	-5509	2020	-1446.55	-672.098	246.44
6.70206e+07	-10488	-3081	1102	-1279.54	-375.882	134.444
6.70409e+07	-8131	-827	1335	-991.982	-100.894	162.87
6.70612e+07	-7300	1926	742	-890.6	234.972	90.524
6.70815e+07	-7272	4561	-536	-887.184	556.442	-65.392
6.71018e+07	-6625	6237	-995	-808.25	760.914	-121.39
6.71221e+07	-6089	6639	-850	-742.858	809.958	-103.7
6.71425e+07	-6476	4602	-1120	-790.072	561.444	-136.64
6.71628e+07	-6309	1898	-1233	-769.698	231.556	-150.426
6.71831e+07	-5958	795	-597	-726.876	96.99	-72.834
6.72034e+07	-6898	-313	122	-841.556	-38.186	14.884
6.72237e+07	-11113	-3586	-363	-1355.79	-437.492	-44.286
6.7244e+07	-15677	-9821	-86	-1912.59	-1198.16	-10.492
6.72643e+07	-15650	-16063	907	-1909.3	-1959.69	110.654
6.72847e+07	-14590	-19100	39	-1779.98	-2330.2	4.758
6.7305e+07	-12410	-18435	169	-1514.02	-2249.07	20.618
6.73253e+07	-9078	-17081	639	-1107.52	-2083.88	77.958
6.73456e+07	-6202	-14592	1509	-756.644	-1780.22	184.098
6.73659e+07	-4289	-12157	2452	-523.258	-1483.15	299.144
6.73862e+07	-2806	-10732	2635	-342.332	-1309.3	321.47
6.74066e+07	-1315	-9921	3106	-160.43	-1210.36	378.932
6.74269e+07	212	-8629	3633	25.864	-1052.74	443.226
6.74472e+07	1918	-6749	3881	233.996	-823.378	473.482
6.74675e+07	4474	-5390	3926	545.828	-657.58	478.972
6.74878e+07	7822	-4997	3385	954.284	-609.634	412.97
6.75081e+07	9397	-6188	2151	1146.43	-754.936	262.422
6.75284e+07	7219	-7800	1632	880.718	-951.6	199.104
6.75488e+07	4455	-8285	1688	543.51	-1010.77	205.936
6.75691e+07	2528	-9386	173	308.416	-1145.09	21.106
6.75894e+07	271	-13991	-560	33.062	-1706.9	-68.32
6.76097e+07	-3133	-21342	-293	-382.226	-2603.72	-35.746
6.763e+07	-8601	-24040	-8	-1049.32	-2932.88	-0.976
6.76504e+07	-14179	-25705	-412	-1729.84	-3136.01	-50.264
6.76707e+07	-16741	-22140	-521	-2042.4	-2701.08	-63.562
6.7691e+07	-15801	-15634	695	-1927.72	-1907.35	84.79
6.77113e+07	-13887	-10207	573	-1694.21	-1245.25	69.906
6.77316e+07	-12339	-5624	-249	-1505.36	-686.128	-30.378
6.77519e+07	-9881	-2064	-310	-1205.48	-251.808	-37.82
6.77722e+07	-7266	991	-597	-886.452	120.902	-72.834
6.77926e+07	-5739	3357	-1290	-700.158	409.554	-157.38
6.78129e+07	-5116	4668	-1711	-624.152	569.496	-208.742
6.78332e+07	-4972	4680	-1511	-606.584	570.96	-184.342
6.78535e+07	-4981	3361	-1422	-607.682	410.042	-173.484
6.78738e+07	-4761	2229	-1143	-580.842	271.938	-139.446
6.78941e+07	-4889	2257	-1153	-596.458	275.354	-140.666
6.79145e+07	-5191	2233	-668	-633.302	272.426	-81.496
6.79348e+07	-6583	1959	-185	-803.126	238.998	-22.57
6.79551e+07	-10297	65	-109	-1256.23	7.93	-13.298
6.79754e+07	-16807	-7079	-293	-2050.45	-863.638	-35.746
6.79957e+07	-22671	-17511	-791	-2765.86	-2136.34	-96.502
6.80161e+07	-19487	-19742	3664	-2377.41	-2408.52	447.008
6.80364e+07	-16753	-16402	4912	-2043.87	-2001.04	599.264
6.80567e+07	-12328	-12978	5055	-1504.02	-1583.32	616.71
6.8077e+07	-7992	-14109	3087	-975.024	-1721.3	376.614
6.80973e+07	-5238	-14146	1539	-639.036	-1725.81	187.758
6.81176e+07	-3600	-12758	1251	-439.2	-1556.48	152.622
6.8138e+07	-2288	-11032	1487	-279.136	-1345.9	181.414
6.81583e+07	-836	-8820	1451	-101.992	-1076.04	177.022
6.81786e+07	1057	-7066	1076	128.954	-862.052	131.272
6.81989e+07	3916	-5347	909	477.752	-652.334	110.898
6.82192e+07	7129	-3844	464	869.738	-468.968	56.608
6.82395e+07	8430	-4502	546	1028.46	-549.244	66.612
6.82599e+07	6402	-6727	597	781.044	-820.694	72.834
6.82802e+07	3727	-8186	224	454.694	-998.692	27.328
6.83005e+07	2362	-9254	-916	288.164	-1128.99	-111.752
6.83208e+07	810	-13074	-1938	98.82	-1595.03	-236.436
6.83411e+07	-1856	-20378	-1075	-226.432	-2486.12	-131.15
6.83614e+07	-9803	-25432	367	-1195.97	-3102.7	44.774
6.83818e+07	-17383	-27953	697	-2120.73	-3410.27	85.034
6.84021e+07	-20041	-22173	1174	-2445	-2705.11	143.228
6.84224e+07	-17864	-15132	2049	-2179.41	-1846.1	249.978
6.84427e+07	-15662	-9921	1356	-1910.76	-1210.36	165.432
6.8463e+07	-14063	-6611	670	-1715.69	-806.542	81.74
6.84833e+07	-10339	-3485	2011	-1261.36	-425.17	245.342
6.85037e+07	-7506	457	1866	-915.732	55.754	227.652
6.8524e+07	-6566	3418	-230	-801.052	416.996	-28.06
6.85443e+07	-6211	4728	-2087	-757.742	576.816	-254.614
6.85646e+07	-5658	6143	-2816	-690.276	749.446	-343.552
6.85849e+07	-5130	8842	-1812	-625.86	1078.72	-221.064
6.86052e+07	-4316	8828	-348	-526.552	1077.02	-42.456
6.86256e+07	-4737	4867	-1060	-577.914	593.774	-129.32
6.86459e+07	-6580	979	-1797	-802.76	119.438	-219.234
6.86662e+07	-9987	-1264	-1021	-1218.41	-154.208	-124.562
6.86865e+07	-14996	-4429	1987	-1829.51	-540.338	242.414
6.87068e+07	-20552	-13079	-97	-2507.34	-1595.64	-11.834
6.87271e+07	-21714	-18651	-3476	-2649.11	-2275.42	-424.072
6.87475e+07	-18473	-20438	-842	-2253.71	-2493.44	-102.724
6.87678e+07	-12895	-17489	1399	-1573.19	-2133.66	170.678
6.87881e+07	-8602	-13736	1139	-1049.44	-1675.79	138.958
6.88084e+07	-5561	-13696	481	-678.442	-1670.91	58.682
6.88287e+07	-2989	-12859	593	-364.658	-1568.8	72.346
6.8849e+07	-1266	-10007	1142	-154.452	-1220.85	139.324
6.88694e+07	374	-8027	1652	45.628	-979.294	201.544
6.88897e+07	1681	-7192	1361	205.082	-877.424	166.042
6.891e+07	2834	-6528	518	345.748	-796.416	63.196
6.89303e+07	4741	-5961	109	578.402	-727.242	13.298
6.89506e+07	6862	-5754	122	837.164	-701.988	14.884
6.89709e+07	7383	-6178	668	900.726	-753.716	81.496
6.89913e+07	5804	-7191	620	708.088	-877.302	75.64
6.90116e+07	3747	-8128	-423	457.134	-991.616	-51.606
6.90319e+07	2704	-9630	-1829	329.888	-1174.86	-223.138
6.90522e+07	1809	-13992	-1414	220.698	-1707.02	-172.508
6.90725e+07	-2333	-22528	1171	-284.626	-2748.42	142.862
6.90928e+07	-13306	-30744	-144	-1623.33	-3750.77	-17.568
6.91131e+07	-19505	-29614	-1151	-2379.61	-3612.91	-140.422
6.91335e+07	-19991	-21126	1469	-2438.9	-2577.37	179.218
6.91538e+07	-17352	-12661	1993	-2116.94	-1544.64	243.146
6.91741e+07	-14784	-5551	623	-1803.65	-677.222	76.006
6.91944e+07	-11778	-2102	384	-1436.92	-256.444	46.848
6.92147e+07	-8983	-985	2263	-1095.93	-120.17	276.086
6.9235e+07	-6368	1192	2688	-776.896	145.424	327.936
6.92554e+07	-5927	3291	-660	-723.094	401.502	-80.52
6.92757e+07	-6170	5032	-2962	-752.74	613.904	-361.364
6.9296e+07	-5325	7507	-2276	-649.65	915.854	-277.672
6.93163e+07	-4262	10115	-1304	-519.964	1234.03	-159.088
6.93366e+07	-4533	8899	-711	-553.026	1085.68	-86.742
6.93569e+07	-5846	3923	-1649	-713.212	478.606	-201.178
6.93772e+07	-6980	152	-2612	-851.56	18.544	-318.664
6.93976e+07	-8415	-1276	-3243	-1026.63	-155.672	-395.646
6.94179e+07	-11897	-4070	-1707	-1451.43	-496.54	-208.254
6.94382e+07	-18376	-12191	-817	-2241.87	-1487.3	-99.674
6.94585e+07	-22914	-21098	-4109	-2795.51	-2573.96	-501.298
6.94788e+07	-20306	-12139	-425	-2477.33	-1480.96	-51.85
6.94991e+07	-19912	-8985	5947	-2429.26	-1096.17	725.534
6.95195e+07	-13393	-14166	4718	-1633.95	-1728.25	575.596
6.95398e+07	-10939	-16688	694	-1334.56	-2035.94	84.668
6.95601e+07	-8613	-16125	-1325	-1050.79	-1967.25	-161.65
6.95804e+07	-6393	-13008	-1554	-779.946	-1586.98	-189.588
6.96007e+07	-4283	-9792	-128	-522.526	-1194.62	-15.616
6.9621e+07	-1502	-7451	1163	-183.244	-909.022	141.886
6.96414e+07	1167	-5359	1593	142.374	-653.798	194.346
6.96617e+07	4819	-4458	1508	587.918	-543.876	183.976
6.9682e+07	8987	-5627	962	1096.41	-686.494	117.364
6.97023e+07	8339	-7976	814	1017.36	-973.072	99.308
6.97226e+07	4872	-9631	488	594.384	-1174.98	59.536
6.97429e+07	3544	-8226	428	432.368	-1003.57	52.216
6.97633e+07	2232	-7318	-131	272.304	-892.796	-15.982
6.97836e+07	-182	-11098	-932	-22.204	-1353.96	-113.704
6.98039e+07	-3249	-18377	-394	-396.378	-2241.99	-48.068
6.98242e+07	-8407	-22706	677	-1025.65	-2770.13	82.594
6.98445e+07	-15534	-24425	831	-1895.15	-2979.85	101.382
6.98648e+07	-18358	-22298	748	-2239.68	-2720.36	91.256
6.98852e+07	-16816	-16222	1339	-2051.55	-1979.08	163.358
6.99055e+07	-15479	-12382	2001	-1888.44	-1510.6	244.122
6.99258e+07	-13776	-9002	1262	-1680.67	-1098.24	153.964
6.99461e+07	-11452	-5335	820	-1397.14	-650.87	100.04
6.99664e+07	-9125	-2330	1835	-1113.25	-284.26	223.87
6.99867e+07	-7505	-126	2283	-915.61	-15.372	278.526
7.0007e+07	-6340	1425	1443	-773.48	173.85	176.046
7.00274e+07	-5394	2912	-144	-658.068	355.264	-17.568
7.00477e+07	-4596	4545	-1185	-560.712	554.49	-144.57
7.0068e+07	-3787	5456	-1042	-462.014	665.632	-127.124
7.00883e+07	-3153	5354	-645	-384.666	653.188	-78.69
7.01086e+07	-3068	5025	-252	-374.296	613.05	-30.744
7.01289e+07	-3545	4193	-48	-432.49	511.546	-5.856
7.01493e+07	-5446	2831	-1137	-664.412	345.382	-138.714
7.01696e+07	-9100	-337	-1841	-1110.2	-41.114	-224.602
7.01899e+07	-16310	-12098	-2691	-1989.82	-1475.96	-328.302
7.02102e+07	-20605	-30208	-3590	-2513.81	-3685.38	-437.98
7.02305e+07	-12678	-25047	1117	-1546.72	-3055.73	136.274
7.02508e+07	-11828	-18492	3221	-1443.02	-2256.02	392.962
7.02712e+07	-8323	-12667	3700	-1015.41	-1545.37	451.4
7.02915e+07	-5044	-13167	2071	-615.368	-1606.37	252.662
7.03118e+07	-3181	-14944	397	-388.082	-1823.17	48.434
7.03321e+07	-2107	-12219	125	-257.054	-1490.72	15.25
7.03524e+07	-257	-9289	1043	-31.354	-1133.26	127.246
7.03727e+07	1795	-7366	1570	218.99	-898.652	191.54
7.03931e+07	3054	-5931	1361	372.588	-723.582	166.042
7.04134e+07	3750	-5182	1097	457.5	-632.204	133.834
7.04337e+07	4324	-4431	1202	527.528	-540.582	146.644
7.0454e+07	5046	-4008	1398	615.612	-488.976	170.556
7.04743e+07	5364	-4608	1427	654.408	-562.176	174.094
7.04946e+07	5014	-5240	1194	611.708	-639.28	145.668
7.0515e+07	3863	-5640	960	471.286	-688.08	117.12
7.05353e+07	2730	-7671	358	333.06	-935.862	43.676
7.05556e+07	2105	-12916	259	256.81	-1575.75	31.598
7.05759e+07	435	-23627	1582	53.07	-2882.49	193.004
7.05962e+07	-3312	-29630	3539	-404.064	-3614.86	431.758
7.06165e+07	-15458	-24549	3959	-1885.88	-2994.98	482.998
7.06368e+07	-16906	-22954	7969	-2062.53	-2800.39	972.218
7.06572e+07	-11872	-14475	4783	-1448.38	-1765.95	583.526
7.06775e+07	-10793	-11450	2215	-1316.75	-1396.9	270.23
7.06978e+07	-10378	-8388	1512	-1266.12	-1023.34	184.464
7.07181e+07	-8842	-4382	3072	-1078.72	-534.604	374.784
7.07384e+07	-7172	-523	4159	-874.984	-63.806	507.398
7.07587e+07	-5469	2043	2912	-667.218	249.246	355.264
7.0779e+07	-5026	3329	246	-613.172	406.138	30.012
7.07993e+07	-4832	4305	-1084	-589.504	525.21	-132.248
7.08197e+07	-4388	5330	-1271	-535.336	650.26	-155.062
7.084e+07	-3925	5719	-898	-478.85	697.718	-109.556
7.08603e+07	-4051	4519	-272	-494.222	551.318	-33.184
7.08806e+07	-4294	2320	-63	-523.868	283.04	-7.686
7.09009e+07	-4575	1064	164	-558.15	129.808	20.008
7.09212e+07	-6392	167	-40	-779.824	20.374	-4.88
7.09416e+07	-10984	-4500	-593	-1340.05	-549	-72.346
7.09619e+07	-17004	-16338	-894	-2074.49	-1993.24	-109.068
7.09822e+07	-17113	-19681	1180	-2087.79	-2401.08	143.96
7.10025e+07	-14972	-14215	4467	-1826.58	-1734.23	544.974
7.10228e+07	-13247	-14919	3712	-1616.13	-1820.12	452.864
7.10431e+07	-9220	-15147	2158	-1124.84	-1847.93	263.276
7.10634e+07	-6687	-14357	1368	-815.814	-1751.55	166.896
